# Created: 2019-11-28 14:13:39.241082
# rshift intensity
81.0454 0.13334000000000001
81.3682 0.11667000000000005
81.6931 0.12334000000000023
82.0181 0.14334000000000024
82.343 0.13334000000000001
82.6679 0.13334000000000001
82.9907 0.14334000000000024
83.3156 0.15334000000000003
83.6405 0.14000000000000012
83.9654 0.11667000000000005
84.2903 0.1200000000000001
84.613 0.14000000000000012
84.9378 0.12667000000000028
85.2626 0.1200000000000001
85.5875 0.12667000000000028
85.9101 0.14000000000000012
86.2349 0.13667000000000007
86.5597 0.12334000000000023
86.8845 0.12667000000000028
87.2093 0.1299999999999999
87.5319 0.14334000000000024
87.8566 0.11334
88.1814 0.14334000000000024
88.5061 0.12334000000000023
88.8286 0.1299999999999999
89.1533 0.13667000000000007
89.478 0.14000000000000012
89.8027 0.11667000000000005
90.1252 0.13334000000000001
90.4499 0.13334000000000001
90.7745 0.1299999999999999
91.0992 0.14000000000000012
91.4216 0.1499999999999999
91.7462 0.1299999999999999
92.0708 0.10999999999999988
92.3954 0.12334000000000023
92.7179 0.1200000000000001
93.0424 0.11334
93.367 0.11667000000000005
93.6915 0.12334000000000023
94.0139 0.10667000000000026
94.3384 0.14666999999999986
94.6629 0.13667000000000007
94.9853 0.1200000000000001
95.3098 0.14334000000000024
95.6342 0.11667000000000005
95.9587 0.13667000000000007
96.281 0.1299999999999999
96.6055 0.14334000000000024
96.9299 0.14000000000000012
97.2522 0.10999999999999988
97.5766 0.14666999999999986
97.901 0.1566700000000001
98.2232 0.1299999999999999
98.5476 0.1200000000000001
98.8719 0.1299999999999999
99.1942 0.15334000000000003
99.5185 0.13667000000000007
99.8428 0.1499999999999999
100.165 0.10667000000000026
100.489 0.1499999999999999
100.814 0.13334000000000001
101.136 0.13667000000000007
101.46 0.1566700000000001
101.784 0.14000000000000012
102.106 0.11667000000000005
102.431 0.12334000000000023
102.755 0.16334000000000026
103.077 0.14000000000000012
103.401 0.14666999999999986
103.725 0.12334000000000023
104.047 0.14334000000000024
104.372 0.1566700000000001
104.696 0.1299999999999999
105.018 0.14000000000000012
105.342 0.1499999999999999
105.666 0.14334000000000024
105.988 0.14000000000000012
106.312 0.1566700000000001
106.634 0.1566700000000001
106.958 0.12667000000000028
107.282 0.14000000000000012
107.604 0.18000000000000016
107.928 0.1566700000000001
108.252 0.13667000000000007
108.574 0.16334000000000026
108.898 0.13667000000000007
109.22 0.1566700000000001
109.544 0.15334000000000003
109.868 0.17334000000000005
110.19 0.12667000000000028
110.514 0.1499999999999999
110.836 0.14000000000000012
111.159 0.1299999999999999
111.483 0.13334000000000001
111.805 0.1499999999999999
112.129 0.13667000000000007
112.451 0.14334000000000024
112.775 0.13334000000000001
113.096 0.16334000000000026
113.42 0.11334
113.744 0.12334000000000023
114.066 0.16000000000000014
114.39 0.1566700000000001
114.711 0.1299999999999999
115.035 0.14334000000000024
115.357 0.1499999999999999
115.681 0.14334000000000024
116.004 0.10999999999999988
116.326 0.14666999999999986
116.65 0.10000000000000009
116.971 0.10334000000000021
117.295 0.14666999999999986
117.617 0.12667000000000028
117.94 0.13667000000000007
118.262 0.14000000000000012
118.586 0.1499999999999999
118.907 0.12667000000000028
119.231 0.14334000000000024
119.554 0.16999999999999993
119.876 0.1299999999999999
120.199 0.1566700000000001
120.521 0.13334000000000001
120.845 0.14334000000000024
121.166 0.13334000000000001
121.49 0.14000000000000012
121.811 0.1499999999999999
122.135 0.12667000000000028
122.456 0.1499999999999999
122.78 0.13334000000000001
123.101 0.12334000000000023
123.424 0.16334000000000026
123.746 0.10334000000000021
124.069 0.1200000000000001
124.391 0.1566700000000001
124.714 0.1299999999999999
125.035 0.14666999999999986
125.359 0.12334000000000023
125.68 0.12667000000000028
126.004 0.15334000000000003
126.325 0.10667000000000026
126.648 0.13667000000000007
126.97 0.10999999999999988
127.291 0.1566700000000001
127.614 0.14666999999999986
127.935 0.16334000000000026
128.259 0.1566700000000001
128.58 0.16334000000000026
128.903 0.14000000000000012
129.224 0.16999999999999993
129.548 0.16334000000000026
129.869 0.13667000000000007
130.192 0.12334000000000023
130.513 0.16334000000000026
130.834 0.1866699999999999
131.158 0.16334000000000026
131.479 0.15334000000000003
131.802 0.17334000000000005
132.123 0.16334000000000026
132.446 0.16000000000000014
132.767 0.17334000000000005
133.09 0.18334000000000028
133.411 0.16999999999999993
133.733 0.1566700000000001
134.056 0.1766700000000001
134.377 0.1866699999999999
134.7 0.13334000000000001
135.021 0.1566700000000001
135.342 0.13334000000000001
135.665 0.1499999999999999
135.986 0.13667000000000007
136.309 0.12334000000000023
136.63 0.14334000000000024
136.951 0.1499999999999999
137.274 0.15334000000000003
137.595 0.15334000000000003
137.918 0.1566700000000001
138.238 0.13334000000000001
138.559 0.15334000000000003
138.882 0.14666999999999986
139.203 0.14000000000000012
139.526 0.16666999999999987
139.847 0.12334000000000023
140.168 0.16000000000000014
140.491 0.14334000000000024
140.811 0.16666999999999987
141.132 0.1299999999999999
141.455 0.15334000000000003
141.776 0.16000000000000014
142.097 0.1499999999999999
142.419 0.1499999999999999
142.74 0.16000000000000014
143.061 0.18334000000000028
143.384 0.14666999999999986
143.704 0.15334000000000003
144.027 0.18334000000000028
144.348 0.1866699999999999
144.668 0.16334000000000026
144.991 0.14666999999999986
145.312 0.20000000000000018
145.632 0.1499999999999999
145.955 0.18000000000000016
146.276 0.1299999999999999
146.596 0.15334000000000003
146.917 0.1566700000000001
147.24 0.13334000000000001
147.56 0.1566700000000001
147.881 0.16334000000000026
148.203 0.16999999999999993
148.524 0.14000000000000012
148.844 0.15334000000000003
149.167 0.11667000000000005
149.487 0.14334000000000024
149.808 0.14334000000000024
150.131 0.16334000000000026
150.451 0.16999999999999993
150.771 0.1566700000000001
151.092 0.16000000000000014
151.414 0.14666999999999986
151.735 0.17334000000000005
152.055 0.15334000000000003
152.378 0.1566700000000001
152.698 0.14334000000000024
153.018 0.16000000000000014
153.339 0.14000000000000012
153.661 0.1499999999999999
153.982 0.16334000000000026
154.302 0.14334000000000024
154.622 0.1499999999999999
154.945 0.1566700000000001
155.265 0.15334000000000003
155.585 0.15334000000000003
155.905 0.16999999999999993
156.228 0.15334000000000003
156.548 0.1499999999999999
156.868 0.16334000000000026
157.188 0.16334000000000026
157.511 0.18334000000000028
157.831 0.15334000000000003
158.151 0.1566700000000001
158.471 0.16999999999999993
158.794 0.14000000000000012
159.114 0.15334000000000003
159.434 0.16000000000000014
159.754 0.16000000000000014
160.074 0.1499999999999999
160.396 0.15334000000000003
160.717 0.1499999999999999
161.037 0.16999999999999993
161.357 0.17334000000000005
161.679 0.1566700000000001
161.999 0.16334000000000026
162.319 0.16000000000000014
162.639 0.12334000000000023
162.959 0.16999999999999993
163.281 0.19334000000000007
163.601 0.16999999999999993
163.921 0.16999999999999993
164.241 0.18000000000000016
164.561 0.18000000000000016
164.881 0.18334000000000028
165.203 0.16000000000000014
165.523 0.16000000000000014
165.843 0.16000000000000014
166.163 0.1499999999999999
166.483 0.19334000000000007
166.803 0.16999999999999993
167.125 0.20999999999999996
167.445 0.16000000000000014
167.764 0.16666999999999987
168.084 0.1766700000000001
168.404 0.16999999999999993
168.724 0.18334000000000028
169.046 0.16666999999999987
169.366 0.18000000000000016
169.685 0.16999999999999993
170.005 0.18999999999999995
170.325 0.1866699999999999
170.645 0.19334000000000007
170.964 0.1499999999999999
171.286 0.1766700000000001
171.606 0.16666999999999987
171.926 0.18999999999999995
172.245 0.16334000000000026
172.565 0.17334000000000005
172.885 0.17334000000000005
173.204 0.16999999999999993
173.524 0.17334000000000005
173.846 0.17334000000000005
174.166 0.1866699999999999
174.485 0.16334000000000026
174.805 0.16666999999999987
175.124 0.1766700000000001
175.444 0.16334000000000026
175.764 0.1766700000000001
176.083 0.1866699999999999
176.403 0.1766700000000001
176.722 0.14000000000000012
177.044 0.20333999999999985
177.363 0.16334000000000026
177.683 0.1499999999999999
178.002 0.18334000000000028
178.322 0.16000000000000014
178.641 0.16666999999999987
178.961 0.1566700000000001
179.28 0.16334000000000026
179.6 0.1566700000000001
179.919 0.18999999999999995
180.239 0.15334000000000003
180.558 0.16999999999999993
180.877 0.18000000000000016
181.197 0.14666999999999986
181.516 0.16334000000000026
181.838 0.16999999999999993
182.157 0.16334000000000026
182.476 0.16334000000000026
182.796 0.16000000000000014
183.115 0.16000000000000014
183.434 0.16999999999999993
183.754 0.17334000000000005
184.073 0.16999999999999993
184.392 0.14666999999999986
184.712 0.17334000000000005
185.031 0.13667000000000007
185.35 0.1566700000000001
185.669 0.1866699999999999
185.989 0.16666999999999987
186.308 0.16000000000000014
186.627 0.15334000000000003
186.946 0.18999999999999995
187.265 0.1766700000000001
187.585 0.16000000000000014
187.904 0.18334000000000028
188.223 0.1566700000000001
188.542 0.18000000000000016
188.861 0.1566700000000001
189.18 0.18999999999999995
189.499 0.18000000000000016
189.818 0.15334000000000003
190.138 0.18000000000000016
190.457 0.1566700000000001
190.776 0.14666999999999986
191.095 0.16666999999999987
191.414 0.15334000000000003
191.733 0.18999999999999995
192.052 0.15334000000000003
192.371 0.16000000000000014
192.69 0.16999999999999993
193.009 0.1766700000000001
193.328 0.16000000000000014
193.647 0.18334000000000028
193.966 0.16999999999999993
194.285 0.16666999999999987
194.602 0.16000000000000014
194.92 0.16666999999999987
195.239 0.1766700000000001
195.558 0.1866699999999999
195.877 0.14334000000000024
196.196 0.20333999999999985
196.515 0.18334000000000028
196.834 0.14666999999999986
197.153 0.16334000000000026
197.471 0.1866699999999999
197.79 0.21667000000000014
198.109 0.20000000000000018
198.428 0.18334000000000028
198.747 0.1866699999999999
199.065 0.1866699999999999
199.382 0.18000000000000016
199.701 0.1766700000000001
200.02 0.16999999999999993
200.338 0.17334000000000005
200.657 0.18999999999999995
200.976 0.16000000000000014
201.295 0.16334000000000026
201.613 0.18334000000000028
201.932 0.20000000000000018
202.251 0.16666999999999987
202.567 0.18000000000000016
202.886 0.13667000000000007
203.204 0.20999999999999996
203.523 0.18334000000000028
203.842 0.1866699999999999
204.16 0.16000000000000014
204.479 0.18334000000000028
204.797 0.1866699999999999
205.114 0.19667000000000012
205.433 0.20000000000000018
205.751 0.18999999999999995
206.07 0.18334000000000028
206.388 0.2066699999999999
206.707 0.18334000000000028
207.025 0.18000000000000016
207.342 0.16666999999999987
207.66 0.18000000000000016
207.979 0.20000000000000018
208.297 0.20333999999999985
208.615 0.1766700000000001
208.934 0.2066699999999999
209.25 0.20000000000000018
209.569 0.1866699999999999
209.887 0.17334000000000005
210.205 0.1566700000000001
210.524 0.16000000000000014
210.842 0.18999999999999995
211.158 0.18999999999999995
211.477 0.18334000000000028
211.795 0.17334000000000005
212.113 0.18999999999999995
212.432 0.19667000000000012
212.75 0.18999999999999995
213.066 0.16999999999999993
213.385 0.19667000000000012
213.703 0.20000000000000018
214.021 0.1766700000000001
214.339 0.19334000000000007
214.656 0.2066699999999999
214.974 0.18334000000000028
215.292 0.17334000000000005
215.61 0.17334000000000005
215.926 0.1766700000000001
216.245 0.16334000000000026
216.563 0.18000000000000016
216.881 0.2200000000000002
217.199 0.19334000000000007
217.515 0.18999999999999995
217.833 0.22333999999999987
218.151 0.1866699999999999
218.469 0.2200000000000002
218.785 0.1866699999999999
219.104 0.19667000000000012
219.422 0.19667000000000012
219.74 0.18999999999999995
220.056 0.2066699999999999
220.374 0.20000000000000018
220.692 0.1866699999999999
221.01 0.18000000000000016
221.326 0.18000000000000016
221.644 0.1766700000000001
221.962 0.18999999999999995
222.28 0.16999999999999993
222.596 0.18334000000000028
222.914 0.21667000000000014
223.232 0.18999999999999995
223.547 0.20000000000000018
223.865 0.17334000000000005
224.183 0.2333400000000001
224.501 0.18999999999999995
224.817 0.20000000000000018
225.135 0.18334000000000028
225.453 0.16666999999999987
225.768 0.18000000000000016
226.086 0.19667000000000012
226.404 0.20000000000000018
226.722 0.22333999999999987
227.038 0.23667000000000016
227.355 0.19334000000000007
227.673 0.2200000000000002
227.989 0.2333400000000001
228.307 0.18999999999999995
228.625 0.20999999999999996
228.94 0.1866699999999999
229.258 0.19667000000000012
229.576 0.20000000000000018
229.891 0.20333999999999985
230.209 0.20333999999999985
230.527 0.20000000000000018
230.842 0.1866699999999999
231.16 0.2333400000000001
231.478 0.21667000000000014
231.793 0.22333999999999987
232.111 0.20333999999999985
232.428 0.20999999999999996
232.744 0.24666999999999994
233.062 0.2200000000000002
233.379 0.18999999999999995
233.695 0.19667000000000012
234.012 0.1866699999999999
234.33 0.19334000000000007
234.645 0.20000000000000018
234.963 0.2066699999999999
235.278 0.20999999999999996
235.596 0.19334000000000007
235.913 0.21667000000000014
236.229 0.20999999999999996
236.546 0.1766700000000001
236.864 0.18000000000000016
237.179 0.1766700000000001
237.497 0.20999999999999996
237.812 0.2333400000000001
238.129 0.20333999999999985
238.447 0.18334000000000028
238.762 0.2066699999999999
239.08 0.2066699999999999
239.395 0.19667000000000012
239.712 0.18999999999999995
240.03 0.19667000000000012
240.345 0.22333999999999987
240.662 0.22999999999999998
240.978 0.20999999999999996
241.295 0.23667000000000016
241.61 0.21334000000000009
241.927 0.2533400000000001
242.245 0.20000000000000018
242.56 0.20000000000000018
242.877 0.24666999999999994
243.192 0.2433399999999999
243.51 0.2333400000000001
243.825 0.19334000000000007
244.142 0.20999999999999996
244.459 0.2066699999999999
244.774 0.2066699999999999
245.092 0.21667000000000014
245.407 0.21667000000000014
245.724 0.2066699999999999
246.039 0.21667000000000014
246.356 0.19334000000000007
246.671 0.22666999999999993
246.988 0.21334000000000009
247.303 0.18999999999999995
247.62 0.21667000000000014
247.938 0.21667000000000014
248.253 0.21334000000000009
248.57 0.23667000000000016
248.885 0.22999999999999998
249.202 0.1766700000000001
249.517 0.18334000000000028
249.834 0.2333400000000001
250.149 0.16999999999999993
250.466 0.21667000000000014
250.781 0.19667000000000012
251.098 0.21334000000000009
251.412 0.20333999999999985
251.729 0.20333999999999985
252.044 0.21334000000000009
252.361 0.19334000000000007
252.676 0.19334000000000007
252.993 0.2066699999999999
253.308 0.21667000000000014
253.625 0.22999999999999998
253.94 0.1866699999999999
254.256 0.23667000000000016
254.571 0.2066699999999999
254.888 0.22999999999999998
255.203 0.23667000000000016
255.518 0.22333999999999987
255.834 0.2066699999999999
256.149 0.2200000000000002
256.466 0.20333999999999985
256.781 0.21667000000000014
257.097 0.20999999999999996
257.412 0.22999999999999998
257.729 0.21334000000000009
258.044 0.20333999999999985
258.36 0.21667000000000014
258.675 0.22666999999999993
258.99 0.20999999999999996
259.306 0.22666999999999993
259.621 0.22666999999999993
259.938 0.2066699999999999
260.252 0.21667000000000014
260.569 0.20000000000000018
260.883 0.20999999999999996
261.198 0.17334000000000005
261.515 0.2200000000000002
261.829 0.20333999999999985
262.146 0.16000000000000014
262.46 0.20999999999999996
262.775 0.17334000000000005
263.091 0.20333999999999985
263.406 0.2200000000000002
263.723 0.20333999999999985
264.037 0.21667000000000014
264.354 0.1566700000000001
264.668 0.2333400000000001
264.982 0.21667000000000014
265.299 0.18334000000000028
265.613 0.17334000000000005
265.928 0.21334000000000009
266.244 0.18999999999999995
266.559 0.20333999999999985
266.875 0.2066699999999999
267.189 0.1766700000000001
267.504 0.21334000000000009
267.82 0.2400000000000002
268.134 0.19334000000000007
268.449 0.2066699999999999
268.765 0.20000000000000018
269.079 0.1866699999999999
269.394 0.20000000000000018
269.71 0.16666999999999987
270.024 0.19667000000000012
270.341 0.19667000000000012
270.655 0.20999999999999996
270.969 0.20333999999999985
271.286 0.18000000000000016
271.6 0.17334000000000005
271.914 0.2333400000000001
272.23 0.2200000000000002
272.544 0.2066699999999999
272.859 0.22999999999999998
273.175 0.22333999999999987
273.489 0.20999999999999996
273.803 0.20000000000000018
274.119 0.19334000000000007
274.433 0.18000000000000016
274.747 0.20333999999999985
275.062 0.19334000000000007
275.378 0.2433399999999999
275.692 0.19667000000000012
276.006 0.2066699999999999
276.322 0.20333999999999985
276.636 0.21334000000000009
276.95 0.20333999999999985
277.266 0.20000000000000018
277.58 0.21334000000000009
277.894 0.20999999999999996
278.208 0.21334000000000009
278.524 0.20999999999999996
278.838 0.18999999999999995
279.152 0.22333999999999987
279.468 0.22999999999999998
279.782 0.20000000000000018
280.096 0.22666999999999993
280.41 0.19667000000000012
280.726 0.2433399999999999
281.04 0.22333999999999987
281.354 0.22666999999999993
281.668 0.2200000000000002
281.983 0.23667000000000016
282.297 0.2400000000000002
282.611 0.24666999999999994
282.925 0.2333400000000001
283.241 0.22333999999999987
283.555 0.2400000000000002
283.868 0.21334000000000009
284.182 0.2333400000000001
284.498 0.21667000000000014
284.812 0.21334000000000009
285.126 0.25
285.439 0.2433399999999999
285.753 0.19334000000000007
286.069 0.20999999999999996
286.383 0.2200000000000002
286.696 0.22333999999999987
287.01 0.2200000000000002
287.326 0.20999999999999996
287.639 0.1866699999999999
287.953 0.2066699999999999
288.267 0.2200000000000002
288.58 0.19667000000000012
288.896 0.21334000000000009
289.21 0.20999999999999996
289.523 0.20999999999999996
289.837 0.22999999999999998
290.15 0.23667000000000016
290.466 0.2066699999999999
290.78 0.2066699999999999
291.093 0.21667000000000014
291.407 0.19667000000000012
291.72 0.21667000000000014
292.034 0.19667000000000012
292.349 0.21667000000000014
292.663 0.2566700000000002
292.976 0.21334000000000009
293.29 0.20999999999999996
293.603 0.2433399999999999
293.917 0.21667000000000014
294.232 0.2200000000000002
294.546 0.22999999999999998
294.859 0.21334000000000009
295.172 0.2333400000000001
295.486 0.19334000000000007
295.799 0.20999999999999996
296.113 0.23667000000000016
296.428 0.2200000000000002
296.741 0.22333999999999987
297.055 0.19334000000000007
297.368 0.20999999999999996
297.681 0.19334000000000007
297.995 0.20333999999999985
298.308 0.20999999999999996
298.621 0.22666999999999993
298.937 0.2566700000000002
299.25 0.19334000000000007
299.563 0.22333999999999987
299.876 0.2566700000000002
300.19 0.20999999999999996
300.503 0.22666999999999993
300.816 0.2333400000000001
301.129 0.19667000000000012
301.442 0.21334000000000009
301.756 0.2200000000000002
302.071 0.17334000000000005
302.384 0.25
302.697 0.20999999999999996
303.01 0.20999999999999996
303.323 0.22333999999999987
303.637 0.22666999999999993
303.95 0.22999999999999998
304.263 0.2433399999999999
304.576 0.21667000000000014
304.889 0.20333999999999985
305.202 0.19667000000000012
305.515 0.18000000000000016
305.828 0.20333999999999985
306.141 0.22666999999999993
306.456 0.20999999999999996
306.769 0.2200000000000002
307.082 0.22333999999999987
307.395 0.21334000000000009
307.708 0.22333999999999987
308.021 0.2333400000000001
308.334 0.21334000000000009
308.647 0.2200000000000002
308.96 0.19667000000000012
309.273 0.22333999999999987
309.586 0.22666999999999993
309.899 0.21667000000000014
310.212 0.22666999999999993
310.525 0.22333999999999987
310.838 0.22666999999999993
311.15 0.2200000000000002
311.463 0.21667000000000014
311.776 0.1866699999999999
312.089 0.21667000000000014
312.402 0.2333400000000001
312.715 0.22999999999999998
313.027 0.23667000000000016
313.34 0.20999999999999996
313.653 0.21667000000000014
313.966 0.22999999999999998
314.278 0.20000000000000018
314.591 0.2400000000000002
314.904 0.21667000000000014
315.217 0.20999999999999996
315.529 0.21667000000000014
315.842 0.2200000000000002
316.155 0.23667000000000016
316.467 0.2433399999999999
316.78 0.2333400000000001
317.093 0.22666999999999993
317.405 0.18999999999999995
317.718 0.21334000000000009
318.031 0.22999999999999998
318.343 0.20000000000000018
318.656 0.23667000000000016
318.969 0.2333400000000001
319.281 0.24666999999999994
319.592 0.20333999999999985
319.904 0.23667000000000016
320.217 0.22333999999999987
320.529 0.2533400000000001
320.842 0.2333400000000001
321.154 0.22999999999999998
321.467 0.2200000000000002
321.779 0.21667000000000014
322.092 0.2533400000000001
322.404 0.22999999999999998
322.717 0.2433399999999999
323.029 0.26000000000000023
323.342 0.24666999999999994
323.654 0.2400000000000002
323.965 0.25
324.277 0.2566700000000002
324.589 0.22999999999999998
324.902 0.2433399999999999
325.214 0.26000000000000023
325.527 0.24666999999999994
325.839 0.25
326.151 0.25
326.464 0.2400000000000002
326.776 0.27
327.086 0.26666999999999996
327.399 0.25
327.711 0.27
328.023 0.2566700000000002
328.335 0.27
328.648 0.29334000000000016
328.96 0.2633399999999999
329.27 0.3133400000000002
329.582 0.31667000000000023
329.895 0.30333999999999994
330.207 0.28667
330.519 0.31667000000000023
330.831 0.33000000000000007
331.143 0.33000000000000007
331.454 0.27
331.766 0.30667
332.078 0.3200000000000003
332.39 0.3500000000000001
332.702 0.3333400000000002
333.014 0.2966700000000002
333.326 0.31667000000000023
333.636 0.32667
333.948 0.33999999999999986
334.261 0.33000000000000007
334.573 0.32333999999999996
334.885 0.28667
335.195 0.31667000000000023
335.507 0.33667000000000025
335.819 0.2833399999999999
336.131 0.28000000000000025
336.443 0.28000000000000025
336.753 0.2833399999999999
337.065 0.27
337.377 0.2833399999999999
337.689 0.2566700000000002
338.001 0.26666999999999996
338.31 0.27334000000000014
338.622 0.27
338.934 0.28000000000000025
339.246 0.26666999999999996
339.558 0.27334000000000014
339.868 0.2566700000000002
340.18 0.25
340.492 0.2566700000000002
340.804 0.28000000000000025
341.113 0.2633399999999999
341.425 0.27
341.737 0.2633399999999999
342.049 0.23667000000000016
342.361 0.30333999999999994
342.67 0.27334000000000014
342.982 0.2566700000000002
343.294 0.28000000000000025
343.606 0.30667
343.915 0.26666999999999996
344.227 0.26666999999999996
344.539 0.2766700000000002
344.849 0.2766700000000002
345.16 0.2633399999999999
345.472 0.29000000000000004
345.784 0.31000000000000005
346.093 0.2766700000000002
346.405 0.25
346.717 0.30000000000000027
347.028 0.31000000000000005
347.338 0.26000000000000023
347.649 0.30000000000000027
347.961 0.31000000000000005
348.271 0.28000000000000025
348.582 0.2966700000000002
348.894 0.2766700000000002
349.205 0.30333999999999994
349.515 0.2833399999999999
349.826 0.27334000000000014
350.138 0.26666999999999996
350.447 0.26666999999999996
350.759 0.3133400000000002
351.07 0.28000000000000025
351.38 0.30333999999999994
351.691 0.29000000000000004
352.003 0.2533400000000001
352.312 0.27334000000000014
352.624 0.28000000000000025
352.935 0.2533400000000001
353.245 0.30000000000000027
353.556 0.27
353.867 0.31000000000000005
354.177 0.26666999999999996
354.488 0.2533400000000001
354.799 0.27334000000000014
355.109 0.2833399999999999
355.42 0.2833399999999999
355.732 0.2966700000000002
356.041 0.28667
356.352 0.27334000000000014
356.663 0.2766700000000002
356.973 0.25
357.284 0.2766700000000002
357.593 0.26000000000000023
357.905 0.26666999999999996
358.216 0.27334000000000014
358.525 0.28000000000000025
358.836 0.2533400000000001
359.147 0.27334000000000014
359.457 0.26666999999999996
359.768 0.28000000000000025
360.077 0.2766700000000002
360.388 0.29000000000000004
360.699 0.2833399999999999
361.008 0.2566700000000002
361.32 0.27
361.629 0.26000000000000023
361.94 0.2766700000000002
362.251 0.28667
362.56 0.28000000000000025
362.871 0.25
363.18 0.28667
363.491 0.2966700000000002
363.8 0.28000000000000025
364.111 0.2766700000000002
364.422 0.2766700000000002
364.731 0.26666999999999996
365.042 0.29000000000000004
365.351 0.26666999999999996
365.662 0.2633399999999999
365.971 0.27
366.282 0.27
366.593 0.27
366.902 0.28667
367.213 0.2766700000000002
367.522 0.2833399999999999
367.833 0.30000000000000027
368.142 0.2633399999999999
368.453 0.26000000000000023
368.762 0.30000000000000027
369.073 0.2766700000000002
369.381 0.28667
369.692 0.26666999999999996
370.001 0.30667
370.312 0.27334000000000014
370.623 0.25
370.932 0.25
371.242 0.28667
371.551 0.2833399999999999
371.862 0.25
372.171 0.26666999999999996
372.482 0.26000000000000023
372.79 0.2766700000000002
373.101 0.28667
373.41 0.26666999999999996
373.721 0.2833399999999999
374.029 0.28667
374.34 0.2766700000000002
374.649 0.2766700000000002
374.959 0.26000000000000023
375.268 0.29334000000000016
375.577 0.2766700000000002
375.887 0.29334000000000016
376.196 0.26666999999999996
376.506 0.2400000000000002
376.815 0.2766700000000002
377.126 0.2633399999999999
377.434 0.26666999999999996
377.745 0.26666999999999996
378.053 0.2766700000000002
378.364 0.2566700000000002
378.672 0.29000000000000004
378.983 0.29000000000000004
379.292 0.27334000000000014
379.6 0.27
379.911 0.28667
380.219 0.27
380.53 0.28000000000000025
380.838 0.2833399999999999
381.148 0.30333999999999994
381.457 0.27334000000000014
381.767 0.28667
382.076 0.2566700000000002
382.384 0.29000000000000004
382.695 0.26000000000000023
383.003 0.33000000000000007
383.313 0.28667
383.622 0.2833399999999999
383.93 0.29334000000000016
384.24 0.30000000000000027
384.549 0.29334000000000016
384.859 0.2566700000000002
385.167 0.2966700000000002
385.476 0.30000000000000027
385.786 0.2566700000000002
386.094 0.28667
386.405 0.31667000000000023
386.713 0.2833399999999999
387.021 0.30000000000000027
387.331 0.30333999999999994
387.64 0.28000000000000025
387.948 0.27334000000000014
388.258 0.30333999999999994
388.566 0.2533400000000001
388.877 0.2833399999999999
389.185 0.2966700000000002
389.493 0.2633399999999999
389.803 0.2966700000000002
390.111 0.33000000000000007
390.419 0.29334000000000016
390.729 0.29334000000000016
391.038 0.2766700000000002
391.346 0.33667000000000025
391.656 0.30667
391.964 0.26000000000000023
392.272 0.33000000000000007
392.582 0.2966700000000002
392.89 0.26000000000000023
393.198 0.30667
393.508 0.30000000000000027
393.816 0.29000000000000004
394.124 0.31667000000000023
394.434 0.31667000000000023
394.742 0.3133400000000002
395.05 0.30333999999999994
395.36 0.27334000000000014
395.668 0.30667
395.976 0.3133400000000002
396.286 0.28667
396.594 0.30000000000000027
396.902 0.32333999999999996
397.21 0.30667
397.52 0.28667
397.828 0.24666999999999994
398.135 0.3133400000000002
398.445 0.27334000000000014
398.753 0.30667
399.061 0.28667
399.369 0.28667
399.679 0.29334000000000016
399.987 0.2766700000000002
400.294 0.33000000000000007
400.604 0.28000000000000025
400.912 0.2966700000000002
401.22 0.2966700000000002
401.527 0.32667
401.837 0.31000000000000005
402.145 0.3200000000000003
402.453 0.34334
402.76 0.3333400000000002
403.07 0.3333400000000002
403.378 0.30000000000000027
403.686 0.3133400000000002
403.993 0.31000000000000005
404.303 0.30667
404.611 0.34334
404.918 0.33000000000000007
405.226 0.33000000000000007
405.533 0.30667
405.843 0.33667000000000025
406.151 0.3200000000000003
406.458 0.31667000000000023
406.766 0.34334
407.076 0.3200000000000003
407.383 0.30667
407.691 0.36667000000000005
407.998 0.32333999999999996
408.306 0.33667000000000025
408.615 0.33000000000000007
408.923 0.28667
409.23 0.30667
409.538 0.3700000000000001
409.845 0.34667000000000003
410.153 0.32667
410.462 0.33667000000000025
410.77 0.34334
411.077 0.3799999999999999
411.384 0.35667000000000026
411.692 0.34334
412.001 0.3999999999999999
412.309 0.3999999999999999
412.616 0.36667000000000005
412.923 0.3333400000000002
413.231 0.3799999999999999
413.538 0.3933399999999998
413.845 0.4366699999999999
414.155 0.4033400000000005
414.462 0.43333999999999984
414.769 0.43999999999999995
415.077 0.43333999999999984
415.384 0.43333999999999984
415.691 0.43999999999999995
415.999 0.43000000000000016
416.308 0.4633400000000001
416.615 0.48
416.922 0.5033400000000001
417.23 0.5066700000000002
417.537 0.5333400000000004
417.844 0.5766700000000005
418.151 0.5699999999999998
418.458 0.5733400000000004
418.768 0.6099999999999999
419.075 0.5766700000000005
419.382 0.6199999999999997
419.689 0.6599999999999997
419.996 0.7066700000000004
420.303 0.7100000000000004
420.61 0.7600000000000002
420.918 0.8233400000000004
421.225 0.8500000000000001
421.532 0.8233400000000004
421.841 0.84667
422.148 0.9033400000000005
422.455 0.9633400000000001
422.762 0.9266700000000001
423.069 1.0000000000000004
423.376 1.0866700000000002
423.683 1.1233400000000002
423.99 1.0900000000000003
424.297 1.1833399999999998
424.604 1.0333400000000004
424.911 1.18667
425.218 1.2033400000000003
425.525 1.1833399999999998
425.832 1.1833399999999998
426.139 1.22667
426.446 1.17667
426.753 1.1633400000000003
427.061 1.0866700000000002
427.368 1.1033399999999998
427.675 1.09334
427.982 1.09334
428.289 1.0633399999999997
428.596 1.0333400000000004
428.903 0.92334
429.209 0.9366699999999999
429.516 0.8800000000000003
429.823 0.8400000000000003
430.13 0.8299999999999996
430.437 0.84334
430.743 0.7166700000000001
431.05 0.73
431.357 0.7766699999999997
431.664 0.6866699999999999
431.97 0.6966699999999997
432.277 0.6400000000000001
432.584 0.6700000000000004
432.891 0.6466699999999999
433.197 0.5833400000000002
433.504 0.5766700000000005
433.811 0.5400000000000005
434.117 0.55667
434.424 0.5233399999999997
434.731 0.56
435.037 0.5466700000000002
435.344 0.47333999999999987
435.65 0.49334000000000033
435.957 0.5033400000000001
436.262 0.46667000000000014
436.568 0.5033400000000001
436.875 0.43333999999999984
437.181 0.43999999999999995
437.488 0.47333999999999987
437.794 0.4433400000000005
438.101 0.44999999999999973
438.407 0.43333999999999984
438.714 0.4533400000000003
439.02 0.40666999999999964
439.327 0.38667000000000007
439.633 0.4600000000000004
439.94 0.36667000000000005
440.246 0.3900000000000001
440.553 0.38334
440.859 0.4033400000000005
441.163 0.3900000000000001
441.47 0.38667000000000007
441.776 0.43333999999999984
442.083 0.4200000000000004
442.389 0.36334
442.695 0.3766700000000003
443.002 0.3933399999999998
443.308 0.4033400000000005
443.614 0.41334000000000026
443.921 0.35667000000000026
444.225 0.3900000000000001
444.531 0.3900000000000001
444.838 0.3733400000000002
445.144 0.38667000000000007
445.45 0.3333400000000002
445.757 0.36334
446.063 0.3766700000000003
446.369 0.3599999999999999
446.675 0.3500000000000001
446.979 0.32667
447.286 0.3500000000000001
447.592 0.36667000000000005
447.898 0.3533400000000002
448.204 0.3999999999999999
448.51 0.3766700000000003
448.817 0.4033400000000005
449.121 0.3533400000000002
449.427 0.3733400000000002
449.733 0.3766700000000003
450.039 0.3933399999999998
450.345 0.36667000000000005
450.651 0.3333400000000002
450.955 0.3599999999999999
451.261 0.40666999999999964
451.568 0.3700000000000001
451.874 0.4099999999999997
452.18 0.40666999999999964
452.486 0.3733400000000002
452.79 0.39666999999999986
453.096 0.36667000000000005
453.402 0.35667000000000026
453.708 0.3999999999999999
454.014 0.3799999999999999
454.318 0.3533400000000002
454.624 0.36667000000000005
454.93 0.3733400000000002
455.236 0.33000000000000007
455.541 0.38667000000000007
455.845 0.36334
456.151 0.33667000000000025
456.457 0.38334
456.763 0.3799999999999999
457.067 0.3500000000000001
457.373 0.33999999999999986
457.679 0.31667000000000023
457.985 0.30667
458.29 0.36667000000000005
458.594 0.36667000000000005
458.9 0.36667000000000005
459.206 0.36334
459.512 0.3700000000000001
459.815 0.31667000000000023
460.121 0.33667000000000025
460.427 0.3200000000000003
460.733 0.3599999999999999
461.036 0.35667000000000026
461.342 0.3766700000000003
461.648 0.30333999999999994
461.954 0.3333400000000002
462.257 0.3500000000000001
462.563 0.29334000000000016
462.869 0.34667000000000003
463.172 0.3500000000000001
463.478 0.3533400000000002
463.784 0.3533400000000002
464.089 0.3133400000000002
464.393 0.33999999999999986
464.699 0.34667000000000003
465.004 0.34334
465.308 0.3133400000000002
465.613 0.3500000000000001
465.919 0.3533400000000002
466.225 0.34667000000000003
466.528 0.34667000000000003
466.834 0.3133400000000002
467.139 0.35667000000000026
467.443 0.3500000000000001
467.748 0.33667000000000025
468.054 0.3333400000000002
468.357 0.3200000000000003
468.663 0.30000000000000027
468.968 0.2966700000000002
469.272 0.2966700000000002
469.577 0.3599999999999999
469.883 0.3133400000000002
470.186 0.3733400000000002
470.492 0.35667000000000026
470.797 0.33667000000000025
471.1 0.34334
471.406 0.3533400000000002
471.711 0.33667000000000025
472.014 0.33667000000000025
472.32 0.33000000000000007
472.625 0.36334
472.929 0.3200000000000003
473.234 0.3933399999999998
473.539 0.3500000000000001
473.843 0.33000000000000007
474.148 0.3500000000000001
474.451 0.3999999999999999
474.756 0.33667000000000025
475.062 0.3599999999999999
475.365 0.38334
475.67 0.3333400000000002
475.973 0.3900000000000001
476.279 0.3733400000000002
476.584 0.3766700000000003
476.887 0.4433400000000005
477.192 0.43999999999999995
477.498 0.4533400000000003
477.801 0.48
478.106 0.52
478.409 0.6000000000000001
478.714 0.6466699999999999
479.017 0.7466700000000004
479.322 0.6966699999999997
479.628 0.6499999999999999
479.931 0.7633399999999999
480.236 0.7566700000000002
480.539 0.7200000000000002
480.844 0.7866700000000004
481.147 0.7466700000000004
481.452 0.77
481.757 0.7733399999999997
482.06 0.7633399999999999
482.365 0.6999999999999997
482.668 0.7066700000000004
482.973 0.7399999999999998
483.276 0.7466700000000004
483.581 0.7433400000000003
483.884 0.7433400000000003
484.189 0.6700000000000004
484.494 0.5766700000000005
484.797 0.5733400000000004
485.102 0.4966700000000004
485.405 0.45667000000000035
485.71 0.4766699999999999
486.013 0.43000000000000016
486.318 0.4366699999999999
486.621 0.3999999999999999
486.925 0.4366699999999999
487.228 0.4200000000000004
487.533 0.36334
487.836 0.3599999999999999
488.141 0.36334
488.444 0.35667000000000026
488.748 0.4033400000000005
489.051 0.38334
489.356 0.3599999999999999
489.659 0.35667000000000026
489.964 0.33999999999999986
490.266 0.33667000000000025
490.571 0.3333400000000002
490.874 0.3533400000000002
491.179 0.3533400000000002
491.481 0.3599999999999999
491.786 0.32333999999999996
492.089 0.34667000000000003
492.393 0.32667
492.696 0.30333999999999994
493.001 0.3333400000000002
493.303 0.33000000000000007
493.606 0.3133400000000002
493.911 0.33999999999999986
494.213 0.31000000000000005
494.518 0.31000000000000005
494.821 0.31667000000000023
495.125 0.29334000000000016
495.428 0.2966700000000002
495.732 0.32667
496.035 0.32667
496.337 0.31000000000000005
496.642 0.2966700000000002
496.945 0.2766700000000002
497.249 0.3200000000000003
497.552 0.30000000000000027
497.856 0.32333999999999996
498.159 0.30000000000000027
498.461 0.2833399999999999
498.766 0.2833399999999999
499.068 0.31667000000000023
499.372 0.3333400000000002
499.675 0.31667000000000023
499.977 0.26666999999999996
500.282 0.29000000000000004
500.584 0.31000000000000005
500.889 0.30000000000000027
501.191 0.3333400000000002
501.493 0.28000000000000025
501.798 0.30667
502.1 0.30667
502.402 0.3133400000000002
502.707 0.29000000000000004
503.009 0.2966700000000002
503.314 0.2833399999999999
503.616 0.29000000000000004
503.918 0.27334000000000014
504.222 0.28000000000000025
504.525 0.33667000000000025
504.827 0.2966700000000002
505.131 0.30000000000000027
505.433 0.29334000000000016
505.736 0.27
506.04 0.2833399999999999
506.342 0.2766700000000002
506.646 0.2766700000000002
506.949 0.29000000000000004
507.251 0.3133400000000002
507.555 0.29000000000000004
507.857 0.2833399999999999
508.159 0.29334000000000016
508.461 0.30000000000000027
508.766 0.2833399999999999
509.068 0.30667
509.37 0.33667000000000025
509.674 0.2966700000000002
509.976 0.2766700000000002
510.278 0.24666999999999994
510.582 0.32333999999999996
510.884 0.2966700000000002
511.186 0.30333999999999994
511.49 0.2833399999999999
511.792 0.2833399999999999
512.094 0.2966700000000002
512.396 0.25
512.701 0.3133400000000002
513.003 0.26000000000000023
513.305 0.3200000000000003
513.609 0.2766700000000002
513.91 0.2766700000000002
514.212 0.30333999999999994
514.514 0.28667
514.818 0.31000000000000005
515.12 0.29000000000000004
515.422 0.2633399999999999
515.724 0.27
516.028 0.27334000000000014
516.33 0.2633399999999999
516.632 0.29334000000000016
516.934 0.29334000000000016
517.237 0.29334000000000016
517.539 0.30333999999999994
517.841 0.2966700000000002
518.143 0.2966700000000002
518.447 0.2966700000000002
518.749 0.28667
519.05 0.2966700000000002
519.352 0.28667
519.656 0.30000000000000027
519.958 0.30000000000000027
520.26 0.2833399999999999
520.561 0.31000000000000005
520.863 0.30333999999999994
521.167 0.2966700000000002
521.468 0.3133400000000002
521.77 0.28667
522.072 0.32333999999999996
522.376 0.29334000000000016
522.677 0.32667
522.979 0.33667000000000025
523.281 0.2833399999999999
523.582 0.28667
523.884 0.31667000000000023
524.187 0.31000000000000005
524.489 0.32667
524.791 0.31000000000000005
525.092 0.3200000000000003
525.394 0.30000000000000027
525.697 0.30667
525.999 0.30667
526.301 0.31667000000000023
526.602 0.31667000000000023
526.904 0.31667000000000023
527.205 0.3333400000000002
527.507 0.28667
527.81 0.3200000000000003
528.112 0.30333999999999994
528.413 0.3200000000000003
528.715 0.31000000000000005
529.016 0.30333999999999994
529.318 0.2966700000000002
529.619 0.30667
529.922 0.2966700000000002
530.224 0.27
530.525 0.2766700000000002
530.827 0.31000000000000005
531.128 0.26000000000000023
531.429 0.2766700000000002
531.731 0.31000000000000005
532.032 0.29334000000000016
532.336 0.30333999999999994
532.637 0.2400000000000002
532.938 0.2966700000000002
533.24 0.28000000000000025
533.541 0.28667
533.842 0.33999999999999986
534.143 0.33667000000000025
534.445 0.3133400000000002
534.746 0.3599999999999999
535.047 0.30333999999999994
535.351 0.28667
535.652 0.31000000000000005
535.953 0.29000000000000004
536.254 0.31667000000000023
536.555 0.32333999999999996
536.857 0.33000000000000007
537.158 0.33000000000000007
537.459 0.2966700000000002
537.76 0.30333999999999994
538.061 0.31667000000000023
538.362 0.31667000000000023
538.664 0.31000000000000005
538.965 0.32667
539.266 0.30667
539.567 0.2966700000000002
539.868 0.28667
540.169 0.3133400000000002
540.472 0.33999999999999986
540.773 0.33000000000000007
541.074 0.30667
541.375 0.3133400000000002
541.677 0.33999999999999986
541.978 0.32667
542.279 0.3133400000000002
542.58 0.33999999999999986
542.881 0.33999999999999986
543.182 0.32667
543.483 0.28000000000000025
543.784 0.3200000000000003
544.085 0.30333999999999994
544.385 0.33000000000000007
544.686 0.32333999999999996
544.987 0.31667000000000023
545.288 0.31000000000000005
545.589 0.3200000000000003
545.89 0.2966700000000002
546.191 0.3200000000000003
546.492 0.34667000000000003
546.793 0.3200000000000003
547.094 0.30333999999999994
547.394 0.34334
547.695 0.3766700000000003
547.996 0.33667000000000025
548.297 0.36667000000000005
548.596 0.34334
548.897 0.34667000000000003
549.197 0.33999999999999986
549.498 0.36667000000000005
549.799 0.3700000000000001
550.1 0.4200000000000004
550.4 0.41334000000000026
550.701 0.3599999999999999
551.002 0.3799999999999999
551.303 0.3799999999999999
551.603 0.38667000000000007
551.904 0.3900000000000001
552.205 0.3999999999999999
552.505 0.4366699999999999
552.806 0.3700000000000001
553.107 0.4466699999999997
553.407 0.46667000000000014
553.706 0.4633400000000001
554.007 0.4200000000000004
554.307 0.4466699999999997
554.608 0.5100000000000002
554.909 0.5033400000000001
555.209 0.48999999999999977
555.51 0.5066700000000002
555.81 0.48999999999999977
556.111 0.47333999999999987
556.411 0.4533400000000003
556.71 0.5066700000000002
557.01 0.4700000000000002
557.311 0.4633400000000001
557.612 0.4600000000000004
557.912 0.5000000000000004
558.213 0.4866699999999997
558.513 0.48
558.813 0.4633400000000001
559.112 0.4600000000000004
559.412 0.43333999999999984
559.713 0.4533400000000003
560.013 0.3766700000000003
560.314 0.4200000000000004
560.614 0.4200000000000004
560.914 0.42334000000000005
561.213 0.4033400000000005
561.513 0.4200000000000004
561.814 0.3733400000000002
562.114 0.3999999999999999
562.414 0.39666999999999986
562.715 0.3933399999999998
563.015 0.3733400000000002
563.313 0.33999999999999986
563.614 0.36334
563.914 0.3533400000000002
564.214 0.3733400000000002
564.515 0.3533400000000002
564.813 0.3733400000000002
565.113 0.35667000000000026
565.413 0.33000000000000007
565.714 0.3133400000000002
566.014 0.35667000000000026
566.312 0.31667000000000023
566.612 0.32333999999999996
566.912 0.3500000000000001
567.213 0.27334000000000014
567.513 0.30000000000000027
567.811 0.31667000000000023
568.111 0.31000000000000005
568.411 0.3500000000000001
568.712 0.3500000000000001
569.012 0.31667000000000023
569.31 0.30667
569.61 0.33000000000000007
569.91 0.30000000000000027
570.21 0.33999999999999986
570.508 0.3599999999999999
570.808 0.34667000000000003
571.108 0.3133400000000002
571.408 0.31000000000000005
571.706 0.31667000000000023
572.006 0.3333400000000002
572.306 0.33667000000000025
572.607 0.33000000000000007
572.904 0.32333999999999996
573.204 0.31000000000000005
573.505 0.31667000000000023
573.805 0.29334000000000016
574.102 0.3333400000000002
574.402 0.32667
574.702 0.31000000000000005
575.002 0.29334000000000016
575.3 0.34334
575.6 0.31667000000000023
575.9 0.33000000000000007
576.198 0.33000000000000007
576.498 0.31667000000000023
576.798 0.3200000000000003
577.098 0.33667000000000025
577.395 0.32667
577.695 0.3133400000000002
577.995 0.32667
578.293 0.31667000000000023
578.593 0.33667000000000025
578.893 0.32667
579.19 0.30000000000000027
579.49 0.3200000000000003
579.79 0.2833399999999999
580.088 0.32333999999999996
580.387 0.29334000000000016
580.687 0.32333999999999996
580.985 0.26000000000000023
581.285 0.29334000000000016
581.584 0.33667000000000025
581.882 0.28000000000000025
582.182 0.33000000000000007
582.482 0.30667
582.779 0.31000000000000005
583.079 0.30333999999999994
583.378 0.2966700000000002
583.676 0.28000000000000025
583.976 0.3200000000000003
584.275 0.28667
584.573 0.30000000000000027
584.873 0.28000000000000025
585.17 0.29000000000000004
585.47 0.28667
585.769 0.2633399999999999
586.067 0.2966700000000002
586.367 0.30667
586.666 0.2966700000000002
586.964 0.29000000000000004
587.263 0.33000000000000007
587.561 0.31667000000000023
587.86 0.29334000000000016
588.16 0.28667
588.457 0.29000000000000004
588.757 0.33667000000000025
589.054 0.30667
589.354 0.31667000000000023
589.653 0.31000000000000005
589.951 0.29000000000000004
590.25 0.31667000000000023
590.547 0.29334000000000016
590.847 0.32333999999999996
591.144 0.27
591.444 0.30333999999999994
591.743 0.32667
592.04 0.3133400000000002
592.34 0.3333400000000002
592.637 0.2833399999999999
592.936 0.2833399999999999
593.234 0.30333999999999994
593.533 0.2833399999999999
593.832 0.32333999999999996
594.13 0.31000000000000005
594.429 0.26000000000000023
594.726 0.30667
595.026 0.33000000000000007
595.323 0.30667
595.622 0.31667000000000023
595.919 0.30333999999999994
596.219 0.30333999999999994
596.516 0.32333999999999996
596.815 0.28667
597.112 0.31000000000000005
597.411 0.30333999999999994
597.709 0.31000000000000005
598.008 0.31000000000000005
598.305 0.3133400000000002
598.604 0.3133400000000002
598.901 0.2966700000000002
599.2 0.32667
599.497 0.33667000000000025
599.797 0.33667000000000025
600.094 0.29000000000000004
600.393 0.27
600.69 0.2966700000000002
600.989 0.3133400000000002
601.286 0.28000000000000025
601.585 0.30667
601.882 0.3200000000000003
602.181 0.3333400000000002
602.478 0.33667000000000025
602.777 0.3200000000000003
603.074 0.31000000000000005
603.373 0.3133400000000002
603.67 0.34334
603.969 0.3133400000000002
604.266 0.34334
604.563 0.3200000000000003
604.862 0.31000000000000005
605.159 0.3733400000000002
605.458 0.34334
605.755 0.2833399999999999
606.054 0.3333400000000002
606.351 0.34334
606.65 0.30667
606.946 0.3200000000000003
607.243 0.32667
607.542 0.3799999999999999
607.839 0.33999999999999986
608.138 0.36334
608.435 0.3333400000000002
608.732 0.32333999999999996
609.03 0.3766700000000003
609.327 0.33999999999999986
609.626 0.40666999999999964
609.923 0.34667000000000003
610.22 0.3799999999999999
610.518 0.4033400000000005
610.815 0.3733400000000002
611.114 0.34334
611.411 0.41334000000000026
611.707 0.38334
612.006 0.38334
612.303 0.3933399999999998
612.601 0.38667000000000007
612.898 0.3700000000000001
613.195 0.4200000000000004
613.493 0.36667000000000005
613.79 0.4099999999999997
614.087 0.38334
614.385 0.4166700000000003
614.682 0.36334
614.979 0.3766700000000003
615.277 0.49334000000000033
615.574 0.36334
615.87 0.3900000000000001
616.169 0.42334000000000005
616.466 0.35667000000000026
616.764 0.3900000000000001
617.061 0.4099999999999997
617.357 0.3700000000000001
617.656 0.34334
617.952 0.3700000000000001
618.249 0.39666999999999986
618.545 0.34667000000000003
618.844 0.3799999999999999
619.14 0.3533400000000002
619.437 0.33000000000000007
619.735 0.36334
620.032 0.34667000000000003
620.328 0.32333999999999996
620.626 0.30667
620.923 0.3500000000000001
621.219 0.31667000000000023
621.518 0.30000000000000027
621.814 0.36334
622.11 0.3733400000000002
622.407 0.34334
622.705 0.29334000000000016
623.002 0.33667000000000025
623.298 0.34334
623.594 0.34334
623.893 0.3333400000000002
624.189 0.30000000000000027
624.485 0.3133400000000002
624.784 0.33667000000000025
625.08 0.33667000000000025
625.376 0.30333999999999994
625.672 0.3500000000000001
625.971 0.28667
626.267 0.2966700000000002
626.563 0.32667
626.859 0.3333400000000002
627.158 0.30667
627.454 0.3500000000000001
627.75 0.29000000000000004
628.046 0.3133400000000002
628.342 0.36667000000000005
628.641 0.3200000000000003
628.937 0.32333999999999996
629.233 0.3133400000000002
629.529 0.33000000000000007
629.827 0.3700000000000001
630.123 0.28000000000000025
630.419 0.33999999999999986
630.715 0.3133400000000002
631.011 0.28000000000000025
631.31 0.3500000000000001
631.606 0.30000000000000027
631.902 0.29334000000000016
632.198 0.32333999999999996
632.494 0.36334
632.792 0.30333999999999994
633.088 0.3133400000000002
633.384 0.31667000000000023
633.68 0.3133400000000002
633.976 0.33667000000000025
634.272 0.31000000000000005
634.57 0.32667
634.866 0.30333999999999994
635.162 0.3333400000000002
635.458 0.3333400000000002
635.754 0.2766700000000002
636.05 0.31000000000000005
636.347 0.3533400000000002
636.643 0.2833399999999999
636.939 0.29334000000000016
637.235 0.2966700000000002
637.531 0.31667000000000023
637.827 0.2833399999999999
638.123 0.2833399999999999
638.421 0.3200000000000003
638.716 0.3133400000000002
639.012 0.32333999999999996
639.308 0.30333999999999994
639.604 0.31667000000000023
639.9 0.29334000000000016
640.195 0.31667000000000023
640.491 0.33667000000000025
640.789 0.32333999999999996
641.085 0.29334000000000016
641.381 0.33000000000000007
641.676 0.33999999999999986
641.972 0.2766700000000002
642.268 0.33667000000000025
642.563 0.3500000000000001
642.859 0.33667000000000025
643.155 0.30000000000000027
643.451 0.3133400000000002
643.746 0.31000000000000005
644.044 0.31667000000000023
644.34 0.3200000000000003
644.635 0.33000000000000007
644.931 0.33000000000000007
645.227 0.31000000000000005
645.522 0.35667000000000026
645.818 0.31667000000000023
646.113 0.30000000000000027
646.409 0.32667
646.704 0.2566700000000002
647.0 0.33999999999999986
647.296 0.2833399999999999
647.591 0.3133400000000002
647.887 0.32333999999999996
648.182 0.32667
648.478 0.31667000000000023
648.773 0.3500000000000001
649.069 0.33667000000000025
649.366 0.31000000000000005
649.662 0.33999999999999986
649.957 0.31667000000000023
650.253 0.33667000000000025
650.548 0.38334
650.844 0.31667000000000023
651.139 0.32667
651.434 0.31667000000000023
651.73 0.34667000000000003
652.025 0.35667000000000026
652.321 0.34667000000000003
652.616 0.34334
652.911 0.33000000000000007
653.207 0.3733400000000002
653.502 0.34667000000000003
653.797 0.3700000000000001
654.093 0.3766700000000003
654.388 0.3766700000000003
654.683 0.4099999999999997
654.979 0.4033400000000005
655.274 0.3900000000000001
655.567 0.4366699999999999
655.863 0.4200000000000004
656.158 0.3999999999999999
656.453 0.41334000000000026
656.748 0.45667000000000035
657.044 0.40666999999999964
657.339 0.46667000000000014
657.634 0.4633400000000001
657.929 0.5266699999999997
658.224 0.47333999999999987
658.52 0.5033400000000001
658.815 0.5133399999999999
659.11 0.5066700000000002
659.405 0.5066700000000002
659.7 0.4866699999999997
659.995 0.5533399999999999
660.291 0.5033400000000001
660.586 0.5866700000000002
660.879 0.6099999999999999
661.174 0.5900000000000003
661.469 0.5433400000000002
661.764 0.5900000000000003
662.059 0.6033399999999998
662.354 0.5433400000000002
662.649 0.5500000000000003
662.944 0.5666699999999998
663.239 0.6166700000000005
663.534 0.5433400000000002
663.83 0.5400000000000005
664.122 0.5299999999999998
664.417 0.5333400000000004
664.713 0.5133399999999999
665.008 0.5100000000000002
665.302 0.5000000000000004
665.597 0.49334000000000033
665.892 0.47333999999999987
666.187 0.45667000000000035
666.48 0.4633400000000001
666.775 0.4633400000000001
667.07 0.45667000000000035
667.365 0.40666999999999964
667.66 0.43999999999999995
667.955 0.42334000000000005
668.25 0.42334000000000005
668.542 0.3900000000000001
668.837 0.3700000000000001
669.132 0.3900000000000001
669.427 0.3799999999999999
669.722 0.3900000000000001
670.017 0.3766700000000003
670.31 0.38667000000000007
670.604 0.3933399999999998
670.899 0.3733400000000002
671.194 0.34667000000000003
671.489 0.3933399999999998
671.783 0.36667000000000005
672.076 0.38334
672.371 0.3766700000000003
672.666 0.3200000000000003
672.96 0.32333999999999996
673.255 0.3533400000000002
673.548 0.34667000000000003
673.842 0.3333400000000002
674.137 0.3500000000000001
674.432 0.32667
674.727 0.36667000000000005
675.019 0.33000000000000007
675.314 0.3333400000000002
675.608 0.34667000000000003
675.903 0.3733400000000002
676.196 0.32667
676.49 0.31000000000000005
676.785 0.33000000000000007
677.079 0.33667000000000025
677.374 0.3500000000000001
677.667 0.3333400000000002
677.961 0.3200000000000003
678.256 0.3200000000000003
678.55 0.34334
678.843 0.29334000000000016
679.137 0.3533400000000002
679.432 0.3200000000000003
679.726 0.3133400000000002
680.019 0.3200000000000003
680.313 0.30667
680.608 0.32333999999999996
680.902 0.29334000000000016
681.195 0.33667000000000025
681.489 0.28667
681.784 0.3333400000000002
682.076 0.36334
682.37 0.31667000000000023
682.665 0.2966700000000002
682.959 0.33000000000000007
683.252 0.31667000000000023
683.546 0.3200000000000003
683.84 0.3133400000000002
684.133 0.33667000000000025
684.427 0.32667
684.721 0.3333400000000002
685.014 0.31667000000000023
685.308 0.30000000000000027
685.602 0.31000000000000005
685.895 0.28667
686.189 0.2966700000000002
686.483 0.34334
686.778 0.30000000000000027
687.07 0.3200000000000003
687.364 0.31667000000000023
687.658 0.2966700000000002
687.951 0.29000000000000004
688.245 0.30333999999999994
688.537 0.32667
688.831 0.30333999999999994
689.125 0.3200000000000003
689.418 0.28000000000000025
689.712 0.2966700000000002
690.006 0.3133400000000002
690.298 0.31667000000000023
690.592 0.3133400000000002
690.886 0.30000000000000027
691.178 0.31667000000000023
691.473 0.30333999999999994
691.767 0.3133400000000002
692.059 0.29000000000000004
692.353 0.34334
692.645 0.32333999999999996
692.939 0.2766700000000002
693.233 0.30333999999999994
693.525 0.3133400000000002
693.819 0.3200000000000003
694.111 0.26666999999999996
694.405 0.2433399999999999
694.699 0.33667000000000025
694.991 0.30667
695.285 0.32667
695.577 0.3200000000000003
695.871 0.29334000000000016
696.165 0.31000000000000005
696.457 0.2766700000000002
696.751 0.3133400000000002
697.043 0.2966700000000002
697.337 0.2966700000000002
697.629 0.32333999999999996
697.923 0.28000000000000025
698.217 0.30000000000000027
698.509 0.3200000000000003
698.802 0.2833399999999999
699.094 0.3533400000000002
699.388 0.27
699.68 0.28667
699.974 0.2966700000000002
700.266 0.28667
700.56 0.32333999999999996
700.853 0.26000000000000023
701.145 0.3133400000000002
