# Created: 2019-11-28 13:05:41.465471
# rshift intensity
76.1738 0.26670000000000016
76.4989 0.13340000000000174
76.824 0.23340000000000316
77.1491 0.06670000000000087
77.4721 0.1667000000000023
77.7972 0.1667000000000023
78.1223 0.06670000000000087
78.4474 0.1667000000000023
78.7724 0.03340000000000032
79.0975 0.03340000000000032
79.4204 0.1667000000000023
79.7454 0.1667000000000023
80.0704 0.13340000000000174
80.3954 0.18340000000000245
80.7204 0.06670000000000087
81.0454 0.10000000000000142
81.3682 0.03340000000000032
81.6931 0.05000000000000071
82.0181 0.06670000000000087
82.343 0.15000000000000213
82.6679 0.06670000000000087
82.9907 0.20000000000000284
83.3156 0.03340000000000032
83.6405 0.10000000000000142
83.9654 0.05000000000000071
84.2903 0.01670000000000016
84.613 0.13340000000000174
84.9378 0.0
85.2626 0.06670000000000087
85.5875 0.15000000000000213
85.9101 0.10000000000000142
86.2349 0.13340000000000174
86.5597 0.03340000000000032
86.8845 0.10000000000000142
87.2093 0.13340000000000174
87.5319 0.13340000000000174
87.8566 0.18340000000000245
88.1814 0.13340000000000174
88.5061 0.08340000000000103
88.8286 0.05000000000000071
89.1533 0.20000000000000284
89.478 0.05000000000000071
89.8027 0.03340000000000032
90.1252 0.05000000000000071
90.4499 0.08340000000000103
90.7745 0.06670000000000087
91.0992 0.1667000000000023
91.4216 0.13340000000000174
91.7462 0.05000000000000071
92.0708 0.05000000000000071
92.3954 0.06670000000000087
92.7179 0.08340000000000103
93.0424 0.1667000000000023
93.367 0.10000000000000142
93.6915 0.15000000000000213
94.0139 0.15000000000000213
94.3384 0.10000000000000142
94.6629 0.05000000000000071
94.9853 0.08340000000000103
95.3098 0.11670000000000158
95.6342 0.10000000000000142
95.9587 0.1667000000000023
96.281 0.15000000000000213
96.6055 0.03340000000000032
96.9299 0.13340000000000174
97.2522 0.11670000000000158
97.5766 0.01670000000000016
97.901 0.01670000000000016
98.2232 0.11670000000000158
98.5476 0.13340000000000174
98.8719 0.03340000000000032
99.1942 0.15000000000000213
99.5185 0.10000000000000142
99.8428 0.13340000000000174
100.165 0.10000000000000142
100.489 0.08340000000000103
100.814 0.1667000000000023
101.136 0.18340000000000245
101.46 0.23340000000000316
101.784 0.13340000000000174
102.106 0.1667000000000023
102.431 0.1667000000000023
102.755 0.03340000000000032
103.077 0.11670000000000158
103.401 0.13340000000000174
103.725 0.06670000000000087
104.047 0.15000000000000213
104.372 0.15000000000000213
104.696 0.23340000000000316
105.018 0.11670000000000158
105.342 0.11670000000000158
105.666 0.13340000000000174
105.988 0.05000000000000071
106.312 0.1667000000000023
106.634 0.1667000000000023
106.958 0.20000000000000284
107.282 0.13340000000000174
107.604 0.08340000000000103
107.928 0.08340000000000103
108.252 0.1667000000000023
108.574 0.13340000000000174
108.898 0.20000000000000284
109.22 0.06670000000000087
109.544 0.10000000000000142
109.868 0.11670000000000158
110.19 0.18340000000000245
110.514 0.13340000000000174
110.836 0.0
111.159 0.13340000000000174
111.483 0.03340000000000032
111.805 0.10000000000000142
112.129 0.1667000000000023
112.451 0.06670000000000087
112.775 0.20000000000000284
113.096 0.18340000000000245
113.42 0.18340000000000245
113.744 0.13340000000000174
114.066 0.11670000000000158
114.39 0.11670000000000158
114.711 0.13340000000000174
115.035 0.11670000000000158
115.357 0.20000000000000284
115.681 0.06670000000000087
116.004 0.23340000000000316
116.326 0.1667000000000023
116.65 0.18340000000000245
116.971 0.01670000000000016
117.295 0.10000000000000142
117.617 0.13340000000000174
117.94 0.08340000000000103
118.262 0.10000000000000142
118.586 0.03340000000000032
118.907 0.11670000000000158
119.231 0.08340000000000103
119.554 0.11670000000000158
119.876 0.06670000000000087
120.199 0.08340000000000103
120.521 0.11670000000000158
120.845 0.10000000000000142
121.166 0.08340000000000103
121.49 0.15000000000000213
121.811 0.10000000000000142
122.135 0.06670000000000087
122.456 0.05000000000000071
122.78 0.05000000000000071
123.101 0.15000000000000213
123.424 0.06670000000000087
123.746 0.13340000000000174
124.069 0.10000000000000142
124.391 0.18340000000000245
124.714 0.15000000000000213
125.035 0.03340000000000032
125.359 0.18340000000000245
125.68 0.15000000000000213
126.004 0.05000000000000071
126.325 0.18340000000000245
126.648 0.01670000000000016
126.97 0.20000000000000284
127.291 0.13340000000000174
127.614 0.08340000000000103
127.935 0.23340000000000316
128.259 0.10000000000000142
128.58 0.08340000000000103
128.903 0.18340000000000245
129.224 0.18340000000000245
129.548 0.10000000000000142
129.869 0.20000000000000284
130.192 0.13340000000000174
130.513 0.18340000000000245
130.834 0.08340000000000103
131.158 0.26670000000000016
131.479 0.13340000000000174
131.802 0.13340000000000174
132.123 0.15000000000000213
132.446 0.03340000000000032
132.767 0.3000000000000007
133.09 0.18340000000000245
133.411 0.06670000000000087
133.733 0.25
134.056 0.10000000000000142
134.377 0.11670000000000158
134.7 0.1667000000000023
135.021 0.11670000000000158
135.342 0.15000000000000213
135.665 0.20000000000000284
135.986 0.13340000000000174
136.309 0.10000000000000142
136.63 0.13340000000000174
136.951 0.1667000000000023
137.274 0.11670000000000158
137.595 0.216700000000003
137.918 0.05000000000000071
138.238 0.18340000000000245
138.559 0.08340000000000103
138.882 0.11670000000000158
139.203 0.1667000000000023
139.526 0.08340000000000103
139.847 0.216700000000003
140.168 0.18340000000000245
140.491 0.13340000000000174
140.811 0.11670000000000158
141.132 0.08340000000000103
141.455 0.11670000000000158
141.776 0.18340000000000245
142.097 0.1667000000000023
142.419 0.20000000000000284
142.74 0.15000000000000213
143.061 0.15000000000000213
143.384 0.1667000000000023
143.704 0.05000000000000071
144.027 0.23340000000000316
144.348 0.23340000000000316
144.668 0.216700000000003
144.991 0.10000000000000142
145.312 0.13340000000000174
145.632 0.15000000000000213
145.955 0.10000000000000142
146.276 0.20000000000000284
146.596 0.13340000000000174
146.917 0.20000000000000284
147.24 0.18340000000000245
147.56 0.05000000000000071
147.881 0.25
148.203 0.13340000000000174
148.524 0.15000000000000213
148.844 0.15000000000000213
149.167 0.11670000000000158
149.487 0.10000000000000142
149.808 0.06670000000000087
150.131 0.11670000000000158
150.451 0.06670000000000087
150.771 0.18340000000000245
151.092 0.18340000000000245
151.414 0.13340000000000174
151.735 0.23340000000000316
152.055 0.06670000000000087
152.378 0.08340000000000103
152.698 0.13340000000000174
153.018 0.23340000000000316
153.339 0.10000000000000142
153.661 0.11670000000000158
153.982 0.20000000000000284
154.302 0.13340000000000174
154.622 0.18340000000000245
154.945 0.20000000000000284
155.265 0.1667000000000023
155.585 0.10000000000000142
155.905 0.06670000000000087
156.228 0.18340000000000245
156.548 0.1667000000000023
156.868 0.23340000000000316
157.188 0.10000000000000142
157.511 0.2834000000000003
157.831 0.15000000000000213
158.151 0.216700000000003
158.471 0.15000000000000213
158.794 0.18340000000000245
159.114 0.10000000000000142
159.434 0.10000000000000142
159.754 0.1667000000000023
160.074 0.216700000000003
160.396 0.13340000000000174
160.717 0.06670000000000087
161.037 0.15000000000000213
161.357 0.13340000000000174
161.679 0.13340000000000174
161.999 0.11670000000000158
162.319 0.1667000000000023
162.639 0.20000000000000284
162.959 0.11670000000000158
163.281 0.13340000000000174
163.601 0.20000000000000284
163.921 0.23340000000000316
164.241 0.216700000000003
164.561 0.15000000000000213
164.881 0.13340000000000174
165.203 0.08340000000000103
165.523 0.25
165.843 0.1667000000000023
166.163 0.25
166.483 0.08340000000000103
166.803 0.23340000000000316
167.125 0.15000000000000213
167.445 0.1667000000000023
167.764 0.13340000000000174
168.084 0.216700000000003
168.404 0.1667000000000023
168.724 0.26670000000000016
169.046 0.08340000000000103
169.366 0.23340000000000316
169.685 0.0
170.005 0.216700000000003
170.325 0.10000000000000142
170.645 0.10000000000000142
170.964 0.1667000000000023
171.286 0.20000000000000284
171.606 0.1667000000000023
171.926 0.15000000000000213
172.245 0.216700000000003
172.565 0.13340000000000174
172.885 0.18340000000000245
173.204 0.216700000000003
173.524 0.10000000000000142
173.846 0.11670000000000158
174.166 0.18340000000000245
174.485 0.15000000000000213
174.805 0.13340000000000174
175.124 0.08340000000000103
175.444 0.13340000000000174
175.764 0.1667000000000023
176.083 0.10000000000000142
176.403 0.15000000000000213
176.722 0.06670000000000087
177.044 0.23340000000000316
177.363 0.216700000000003
177.683 0.15000000000000213
178.002 0.13340000000000174
178.322 0.1667000000000023
178.641 0.20000000000000284
178.961 0.1667000000000023
179.28 0.18340000000000245
179.6 0.23340000000000316
179.919 0.08340000000000103
180.239 0.08340000000000103
180.558 0.216700000000003
180.877 0.20000000000000284
181.197 0.20000000000000284
181.516 0.06670000000000087
181.838 0.18340000000000245
182.157 0.31670000000000087
182.476 0.13340000000000174
182.796 0.13340000000000174
183.115 0.06670000000000087
183.434 0.10000000000000142
183.754 0.1667000000000023
184.073 0.06670000000000087
184.392 0.26670000000000016
184.712 0.15000000000000213
185.031 0.18340000000000245
185.35 0.18340000000000245
185.669 0.13340000000000174
185.989 0.18340000000000245
186.308 0.08340000000000103
186.627 0.216700000000003
186.946 0.216700000000003
187.265 0.13340000000000174
187.585 0.13340000000000174
187.904 0.08340000000000103
188.223 0.23340000000000316
188.542 0.15000000000000213
188.861 0.216700000000003
189.18 0.10000000000000142
189.499 0.23340000000000316
189.818 0.23340000000000316
190.138 0.15000000000000213
190.457 0.20000000000000284
190.776 0.25
191.095 0.20000000000000284
191.414 0.25
191.733 0.216700000000003
192.052 0.08340000000000103
192.371 0.26670000000000016
192.69 0.05000000000000071
193.009 0.15000000000000213
193.328 0.25
193.647 0.03340000000000032
193.966 0.216700000000003
194.285 0.13340000000000174
194.602 0.3000000000000007
194.92 0.1667000000000023
195.239 0.10000000000000142
195.558 0.20000000000000284
195.877 0.1667000000000023
196.196 0.13340000000000174
196.515 0.216700000000003
196.834 0.1667000000000023
197.153 0.05000000000000071
197.471 0.18340000000000245
197.79 0.1667000000000023
198.109 0.216700000000003
198.428 0.18340000000000245
198.747 0.18340000000000245
199.065 0.08340000000000103
199.382 0.13340000000000174
199.701 0.08340000000000103
200.02 0.2834000000000003
200.338 0.26670000000000016
200.657 0.11670000000000158
200.976 0.10000000000000142
201.295 0.13340000000000174
201.613 0.20000000000000284
201.932 0.13340000000000174
202.251 0.18340000000000245
202.567 0.08340000000000103
202.886 0.15000000000000213
203.204 0.18340000000000245
203.523 0.18340000000000245
203.842 0.20000000000000284
204.16 0.20000000000000284
204.479 0.18340000000000245
204.797 0.20000000000000284
205.114 0.11670000000000158
205.433 0.1667000000000023
205.751 0.23340000000000316
206.07 0.15000000000000213
206.388 0.18340000000000245
206.707 0.18340000000000245
207.025 0.0
207.342 0.20000000000000284
207.66 0.13340000000000174
207.979 0.3000000000000007
208.297 0.25
208.615 0.25
208.934 0.25
209.25 0.06670000000000087
209.569 0.2834000000000003
209.887 0.08340000000000103
210.205 0.20000000000000284
210.524 0.15000000000000213
210.842 0.18340000000000245
211.158 0.13340000000000174
211.477 0.23340000000000316
211.795 0.13340000000000174
212.113 0.20000000000000284
212.432 0.10000000000000142
212.75 0.11670000000000158
213.066 0.11670000000000158
213.385 0.31670000000000087
213.703 0.26670000000000016
214.021 0.08340000000000103
214.339 0.3500000000000014
214.656 0.08340000000000103
214.974 0.3000000000000007
215.292 0.25
215.61 0.11670000000000158
215.926 0.2834000000000003
216.245 0.10000000000000142
216.563 0.1667000000000023
216.881 0.26670000000000016
217.199 0.25
217.515 0.31670000000000087
217.833 0.25
218.151 0.15000000000000213
218.469 0.13340000000000174
218.785 0.18340000000000245
219.104 0.13340000000000174
219.422 0.15000000000000213
219.74 0.20000000000000284
220.056 0.20000000000000284
220.374 0.13340000000000174
220.692 0.13340000000000174
221.01 0.216700000000003
221.326 0.20000000000000284
221.644 0.20000000000000284
221.962 0.1667000000000023
222.28 0.20000000000000284
222.596 0.10000000000000142
222.914 0.26670000000000016
223.232 0.15000000000000213
223.547 0.18340000000000245
223.865 0.216700000000003
224.183 0.10000000000000142
224.501 0.25
224.817 0.15000000000000213
225.135 0.26670000000000016
225.453 0.216700000000003
225.768 0.1667000000000023
226.086 0.216700000000003
226.404 0.26670000000000016
226.722 0.18340000000000245
227.038 0.15000000000000213
227.355 0.216700000000003
227.673 0.20000000000000284
227.989 0.11670000000000158
228.307 0.25
228.625 0.08340000000000103
228.94 0.13340000000000174
229.258 0.25
229.576 0.18340000000000245
229.891 0.3000000000000007
230.209 0.18340000000000245
230.527 0.08340000000000103
230.842 0.1667000000000023
231.16 0.3000000000000007
231.478 0.1667000000000023
231.793 0.08340000000000103
232.111 0.26670000000000016
232.428 0.1667000000000023
232.744 0.20000000000000284
233.062 0.23340000000000316
233.379 0.11670000000000158
233.695 0.216700000000003
234.012 0.20000000000000284
234.33 0.216700000000003
234.645 0.11670000000000158
234.963 0.06670000000000087
235.278 0.20000000000000284
235.596 0.20000000000000284
235.913 0.08340000000000103
236.229 0.26670000000000016
236.546 0.18340000000000245
236.864 0.216700000000003
237.179 0.2834000000000003
237.497 0.15000000000000213
237.812 0.23340000000000316
238.129 0.20000000000000284
238.447 0.15000000000000213
238.762 0.13340000000000174
239.08 0.13340000000000174
239.395 0.15000000000000213
239.712 0.18340000000000245
240.03 0.08340000000000103
240.345 0.26670000000000016
240.662 0.23340000000000316
240.978 0.10000000000000142
241.295 0.1667000000000023
241.61 0.26670000000000016
241.927 0.1667000000000023
242.245 0.18340000000000245
242.56 0.15000000000000213
242.877 0.13340000000000174
243.192 0.31670000000000087
243.51 0.13340000000000174
243.825 0.13340000000000174
244.142 0.18340000000000245
244.459 0.18340000000000245
244.774 0.25
245.092 0.216700000000003
245.407 0.18340000000000245
245.724 0.15000000000000213
246.039 0.13340000000000174
246.356 0.26670000000000016
246.671 0.20000000000000284
246.988 0.20000000000000284
247.303 0.33340000000000103
247.62 0.15000000000000213
247.938 0.20000000000000284
248.253 0.25
248.57 0.15000000000000213
248.885 0.18340000000000245
249.202 0.25
249.517 0.26670000000000016
249.834 0.25
250.149 0.18340000000000245
250.466 0.20000000000000284
250.781 0.216700000000003
251.098 0.11670000000000158
251.412 0.20000000000000284
251.729 0.1667000000000023
252.044 0.216700000000003
252.361 0.3000000000000007
252.676 0.216700000000003
252.993 0.3000000000000007
253.308 0.1667000000000023
253.625 0.20000000000000284
253.94 0.20000000000000284
254.256 0.23340000000000316
254.571 0.18340000000000245
254.888 0.1667000000000023
255.203 0.11670000000000158
255.518 0.3000000000000007
255.834 0.216700000000003
256.149 0.1667000000000023
256.466 0.2834000000000003
256.781 0.25
257.097 0.25
257.412 0.1667000000000023
257.729 0.1667000000000023
258.044 0.23340000000000316
258.36 0.25
258.675 0.18340000000000245
258.99 0.13340000000000174
259.306 0.20000000000000284
259.621 0.25
259.938 0.20000000000000284
260.252 0.13340000000000174
260.569 0.1667000000000023
260.883 0.20000000000000284
261.198 0.31670000000000087
261.515 0.13340000000000174
261.829 0.3000000000000007
262.146 0.23340000000000316
262.46 0.15000000000000213
262.775 0.15000000000000213
263.091 0.06670000000000087
263.406 0.2834000000000003
263.723 0.25
264.037 0.18340000000000245
264.354 0.15000000000000213
264.668 0.18340000000000245
264.982 0.25
265.299 0.23340000000000316
265.613 0.06670000000000087
265.928 0.18340000000000245
266.244 0.25
266.559 0.18340000000000245
266.875 0.15000000000000213
267.189 0.08340000000000103
267.504 0.3500000000000014
267.82 0.20000000000000284
268.134 0.25
268.449 0.20000000000000284
268.765 0.25
269.079 0.20000000000000284
269.394 0.1667000000000023
269.71 0.20000000000000284
270.024 0.26670000000000016
270.341 0.26670000000000016
270.655 0.20000000000000284
270.969 0.18340000000000245
271.286 0.18340000000000245
271.6 0.11670000000000158
271.914 0.06670000000000087
272.23 0.23340000000000316
272.544 0.18340000000000245
272.859 0.25
273.175 0.23340000000000316
273.489 0.1667000000000023
273.803 0.23340000000000316
274.119 0.23340000000000316
274.433 0.2834000000000003
274.747 0.216700000000003
275.062 0.216700000000003
275.378 0.1667000000000023
275.692 0.216700000000003
276.006 0.216700000000003
276.322 0.3000000000000007
276.636 0.3000000000000007
276.95 0.13340000000000174
277.266 0.23340000000000316
277.58 0.216700000000003
277.894 0.23340000000000316
278.208 0.1667000000000023
278.524 0.26670000000000016
278.838 0.23340000000000316
279.152 0.216700000000003
279.468 0.2834000000000003
279.782 0.15000000000000213
280.096 0.13340000000000174
280.41 0.23340000000000316
280.726 0.25
281.04 0.26670000000000016
281.354 0.216700000000003
281.668 0.26670000000000016
281.983 0.26670000000000016
282.297 0.25
282.611 0.23340000000000316
282.925 0.26670000000000016
283.241 0.25
283.555 0.13340000000000174
283.868 0.31670000000000087
284.182 0.10000000000000142
284.498 0.18340000000000245
284.812 0.23340000000000316
285.126 0.11670000000000158
285.439 0.216700000000003
285.753 0.11670000000000158
286.069 0.26670000000000016
286.383 0.3000000000000007
286.696 0.13340000000000174
287.01 0.31670000000000087
287.326 0.18340000000000245
287.639 0.08340000000000103
287.953 0.18340000000000245
288.267 0.25
288.58 0.23340000000000316
288.896 0.25
289.21 0.18340000000000245
289.523 0.20000000000000284
289.837 0.20000000000000284
290.15 0.18340000000000245
290.466 0.26670000000000016
290.78 0.25
291.093 0.18340000000000245
291.407 0.2834000000000003
291.72 0.18340000000000245
292.034 0.23340000000000316
292.349 0.3000000000000007
292.663 0.3000000000000007
292.976 0.18340000000000245
293.29 0.25
293.603 0.1667000000000023
293.917 0.25
294.232 0.13340000000000174
294.546 0.20000000000000284
294.859 0.18340000000000245
295.172 0.38340000000000174
295.486 0.31670000000000087
295.799 0.15000000000000213
296.113 0.1667000000000023
296.428 0.26670000000000016
296.741 0.23340000000000316
297.055 0.3000000000000007
297.368 0.18340000000000245
297.681 0.25
297.995 0.20000000000000284
298.308 0.11670000000000158
298.621 0.1667000000000023
298.937 0.1667000000000023
299.25 0.18340000000000245
299.563 0.3000000000000007
299.876 0.23340000000000316
300.19 0.25
300.503 0.2834000000000003
300.816 0.1667000000000023
301.129 0.216700000000003
301.442 0.13340000000000174
301.756 0.11670000000000158
302.071 0.23340000000000316
302.384 0.26670000000000016
302.697 0.216700000000003
303.01 0.15000000000000213
303.323 0.05000000000000071
303.637 0.10000000000000142
303.95 0.216700000000003
304.263 0.216700000000003
304.576 0.2834000000000003
304.889 0.18340000000000245
305.202 0.33340000000000103
305.515 0.26670000000000016
305.828 0.18340000000000245
306.141 0.1667000000000023
306.456 0.15000000000000213
306.769 0.15000000000000213
307.082 0.2834000000000003
307.395 0.15000000000000213
307.708 0.1667000000000023
308.021 0.23340000000000316
308.334 0.216700000000003
308.647 0.15000000000000213
308.96 0.3000000000000007
309.273 0.25
309.586 0.18340000000000245
309.899 0.18340000000000245
310.212 0.20000000000000284
310.525 0.20000000000000284
310.838 0.18340000000000245
311.15 0.15000000000000213
311.463 0.13340000000000174
311.776 0.26670000000000016
312.089 0.11670000000000158
312.402 0.2834000000000003
312.715 0.23340000000000316
313.027 0.31670000000000087
313.34 0.25
313.653 0.11670000000000158
313.966 0.2834000000000003
314.278 0.216700000000003
314.591 0.33340000000000103
314.904 0.10000000000000142
315.217 0.33340000000000103
315.529 0.31670000000000087
315.842 0.13340000000000174
316.155 0.08340000000000103
316.467 0.26670000000000016
316.78 0.216700000000003
317.093 0.23340000000000316
317.405 0.23340000000000316
317.718 0.26670000000000016
318.031 0.05000000000000071
318.343 0.18340000000000245
318.656 0.25
318.969 0.25
319.281 0.18340000000000245
319.592 0.20000000000000284
319.904 0.18340000000000245
320.217 0.18340000000000245
320.529 0.23340000000000316
320.842 0.23340000000000316
321.154 0.31670000000000087
321.467 0.18340000000000245
321.779 0.2834000000000003
322.092 0.3500000000000014
322.404 0.26670000000000016
322.717 0.33340000000000103
323.029 0.26670000000000016
323.342 0.18340000000000245
323.654 0.216700000000003
323.965 0.31670000000000087
324.277 0.13340000000000174
324.589 0.23340000000000316
324.902 0.3000000000000007
325.214 0.11670000000000158
325.527 0.3667000000000016
325.839 0.1667000000000023
326.151 0.20000000000000284
326.464 0.3000000000000007
326.776 0.25
327.086 0.33340000000000103
327.399 0.33340000000000103
327.711 0.3000000000000007
328.023 0.43340000000000245
328.335 0.15000000000000213
328.648 0.216700000000003
328.96 0.38340000000000174
329.27 0.3667000000000016
329.582 0.3500000000000014
329.895 0.3000000000000007
330.207 0.33340000000000103
330.519 0.31670000000000087
330.831 0.48340000000000316
331.143 0.25
331.454 0.33340000000000103
331.766 0.2834000000000003
332.078 0.26670000000000016
332.39 0.3667000000000016
332.702 0.31670000000000087
333.014 0.38340000000000174
333.326 0.26670000000000016
333.636 0.43340000000000245
333.948 0.31670000000000087
334.261 0.3000000000000007
334.573 0.3667000000000016
334.885 0.3667000000000016
335.195 0.31670000000000087
335.507 0.26670000000000016
335.819 0.18340000000000245
336.131 0.1667000000000023
336.443 0.33340000000000103
336.753 0.31670000000000087
337.065 0.33340000000000103
337.377 0.216700000000003
337.689 0.18340000000000245
338.001 0.3667000000000016
338.31 0.20000000000000284
338.622 0.23340000000000316
338.934 0.31670000000000087
339.246 0.18340000000000245
339.558 0.26670000000000016
339.868 0.25
340.18 0.25
340.492 0.25
340.804 0.25
341.113 0.20000000000000284
341.425 0.31670000000000087
341.737 0.3500000000000014
342.049 0.3000000000000007
342.361 0.18340000000000245
342.67 0.216700000000003
342.982 0.31670000000000087
343.294 0.38340000000000174
343.606 0.1667000000000023
343.915 0.23340000000000316
344.227 0.40000000000000213
344.539 0.1667000000000023
344.849 0.4167000000000023
345.16 0.18340000000000245
345.472 0.3000000000000007
345.784 0.33340000000000103
346.093 0.3000000000000007
346.405 0.40000000000000213
346.717 0.26670000000000016
347.028 0.2834000000000003
347.338 0.25
347.649 0.4167000000000023
347.961 0.38340000000000174
348.271 0.25
348.582 0.31670000000000087
348.894 0.216700000000003
349.205 0.33340000000000103
349.515 0.3500000000000014
349.826 0.2834000000000003
350.138 0.2834000000000003
350.447 0.26670000000000016
350.759 0.2834000000000003
351.07 0.26670000000000016
351.38 0.1667000000000023
351.691 0.25
352.003 0.216700000000003
352.312 0.26670000000000016
352.624 0.40000000000000213
352.935 0.31670000000000087
353.245 0.40000000000000213
353.556 0.23340000000000316
353.867 0.38340000000000174
354.177 0.20000000000000284
354.488 0.216700000000003
354.799 0.3667000000000016
355.109 0.40000000000000213
355.42 0.31670000000000087
355.732 0.20000000000000284
356.041 0.1667000000000023
356.352 0.216700000000003
356.663 0.3667000000000016
356.973 0.18340000000000245
357.284 0.2834000000000003
357.593 0.23340000000000316
357.905 0.3500000000000014
358.216 0.3667000000000016
358.525 0.216700000000003
358.836 0.3667000000000016
359.147 0.3667000000000016
359.457 0.31670000000000087
359.768 0.33340000000000103
360.077 0.3500000000000014
360.388 0.2834000000000003
360.699 0.5
361.008 0.3000000000000007
361.32 0.25
361.629 0.23340000000000316
361.94 0.4167000000000023
362.251 0.13340000000000174
362.56 0.33340000000000103
362.871 0.3667000000000016
363.18 0.25
363.491 0.3000000000000007
363.8 0.3000000000000007
364.111 0.2834000000000003
364.422 0.33340000000000103
364.731 0.31670000000000087
365.042 0.25
365.351 0.3000000000000007
365.662 0.33340000000000103
365.971 0.3000000000000007
366.282 0.25
366.593 0.3500000000000014
366.902 0.216700000000003
367.213 0.1667000000000023
367.522 0.3500000000000014
367.833 0.25
368.142 0.3000000000000007
368.453 0.25
368.762 0.31670000000000087
369.073 0.20000000000000284
369.381 0.216700000000003
369.692 0.26670000000000016
370.001 0.216700000000003
370.312 0.33340000000000103
370.623 0.25
370.932 0.4167000000000023
371.242 0.26670000000000016
371.551 0.26670000000000016
371.862 0.3000000000000007
372.171 0.10000000000000142
372.482 0.3000000000000007
372.79 0.26670000000000016
373.101 0.2834000000000003
373.41 0.23340000000000316
373.721 0.15000000000000213
374.029 0.23340000000000316
374.34 0.216700000000003
374.649 0.18340000000000245
374.959 0.25
375.268 0.23340000000000316
375.577 0.3000000000000007
375.887 0.3000000000000007
376.196 0.25
376.506 0.216700000000003
376.815 0.20000000000000284
377.126 0.40000000000000213
377.434 0.31670000000000087
377.745 0.26670000000000016
378.053 0.33340000000000103
378.364 0.23340000000000316
378.672 0.33340000000000103
378.983 0.23340000000000316
379.292 0.33340000000000103
379.6 0.3000000000000007
379.911 0.18340000000000245
380.219 0.40000000000000213
380.53 0.15000000000000213
380.838 0.26670000000000016
381.148 0.33340000000000103
381.457 0.26670000000000016
381.767 0.26670000000000016
382.076 0.3667000000000016
382.384 0.26670000000000016
382.695 0.31670000000000087
383.003 0.31670000000000087
383.313 0.3667000000000016
383.622 0.18340000000000245
383.93 0.3500000000000014
384.24 0.3000000000000007
384.549 0.2834000000000003
384.859 0.25
385.167 0.2834000000000003
385.476 0.20000000000000284
385.786 0.3667000000000016
386.094 0.2834000000000003
386.405 0.3500000000000014
386.713 0.216700000000003
387.021 0.18340000000000245
387.331 0.25
387.64 0.3500000000000014
387.948 0.216700000000003
388.258 0.5
388.566 0.26670000000000016
388.877 0.3667000000000016
389.185 0.38340000000000174
389.493 0.33340000000000103
389.803 0.26670000000000016
390.111 0.23340000000000316
390.419 0.216700000000003
390.729 0.4167000000000023
391.038 0.23340000000000316
391.346 0.3500000000000014
391.656 0.40000000000000213
391.964 0.3667000000000016
392.272 0.38340000000000174
392.582 0.18340000000000245
392.89 0.5
393.198 0.31670000000000087
393.508 0.2834000000000003
393.816 0.3500000000000014
394.124 0.31670000000000087
394.434 0.31670000000000087
394.742 0.31670000000000087
395.05 0.3667000000000016
395.36 0.23340000000000316
395.668 0.3000000000000007
395.976 0.23340000000000316
396.286 0.15000000000000213
396.594 0.31670000000000087
396.902 0.38340000000000174
397.21 0.25
397.52 0.26670000000000016
397.828 0.38340000000000174
398.135 0.2834000000000003
398.445 0.38340000000000174
398.753 0.31670000000000087
399.061 0.26670000000000016
399.369 0.1667000000000023
399.679 0.3500000000000014
399.987 0.2834000000000003
400.294 0.26670000000000016
400.604 0.25
400.912 0.4167000000000023
401.22 0.26670000000000016
401.527 0.3500000000000014
401.837 0.3000000000000007
402.145 0.26670000000000016
402.453 0.33340000000000103
402.76 0.26670000000000016
403.07 0.38340000000000174
403.378 0.31670000000000087
403.686 0.3667000000000016
403.993 0.33340000000000103
404.303 0.3000000000000007
404.611 0.3500000000000014
404.918 0.33340000000000103
405.226 0.33340000000000103
405.533 0.40000000000000213
405.843 0.3500000000000014
406.151 0.26670000000000016
406.458 0.33340000000000103
406.766 0.3000000000000007
407.076 0.5500000000000007
407.383 0.33340000000000103
407.691 0.38340000000000174
407.998 0.33340000000000103
408.306 0.31670000000000087
408.615 0.31670000000000087
408.923 0.3667000000000016
409.23 0.48340000000000316
409.538 0.216700000000003
409.845 0.33340000000000103
410.153 0.3500000000000014
410.462 0.3500000000000014
410.77 0.38340000000000174
411.077 0.38340000000000174
411.384 0.38340000000000174
411.692 0.466700000000003
412.001 0.40000000000000213
412.309 0.5
412.616 0.38340000000000174
412.923 0.43340000000000245
413.231 0.466700000000003
413.538 0.3667000000000016
413.845 0.43340000000000245
414.155 0.466700000000003
414.462 0.45000000000000284
414.769 0.6334000000000017
415.077 0.5500000000000007
415.384 0.48340000000000316
415.691 0.5
415.999 0.6667000000000023
416.308 0.5334000000000003
416.615 0.6167000000000016
416.922 0.5167000000000002
417.23 0.75
417.537 0.6834000000000024
417.844 0.75
418.151 0.7000000000000028
418.458 0.8000000000000007
418.768 0.9000000000000021
419.075 0.8667000000000016
419.382 0.966700000000003
419.689 0.9000000000000021
419.996 1.0
420.303 0.833400000000001
420.61 1.1834000000000024
420.918 1.0167000000000002
421.225 1.083400000000001
421.532 1.25
421.841 1.25
422.148 1.0500000000000007
422.455 1.216700000000003
422.762 1.2667000000000002
423.069 1.1834000000000024
423.376 1.1000000000000014
423.683 1.5
423.99 1.216700000000003
424.297 1.3000000000000007
424.604 1.1500000000000021
424.911 1.2334000000000032
425.218 1.1167000000000016
425.525 1.1000000000000014
425.832 1.0
426.139 1.1167000000000016
426.446 1.0
426.753 0.9334000000000024
427.061 1.0334000000000003
427.368 0.9500000000000028
427.675 0.9167000000000023
427.982 0.8834000000000017
428.289 1.0167000000000002
428.596 0.716700000000003
428.903 1.0
429.209 0.6500000000000021
429.516 0.7667000000000002
429.823 0.7834000000000003
430.13 0.6334000000000017
430.437 0.8667000000000016
430.743 0.8500000000000014
431.05 0.6500000000000021
431.357 0.6834000000000024
431.664 0.716700000000003
431.97 0.6500000000000021
432.277 0.583400000000001
432.584 0.6334000000000017
432.891 0.5500000000000007
433.197 0.5
433.504 0.5
433.811 0.5
434.117 0.5334000000000003
434.424 0.5500000000000007
434.731 0.48340000000000316
435.037 0.45000000000000284
435.344 0.38340000000000174
435.65 0.5667000000000009
435.957 0.38340000000000174
436.262 0.5334000000000003
436.568 0.43340000000000245
436.875 0.5167000000000002
437.181 0.43340000000000245
437.488 0.33340000000000103
437.794 0.3500000000000014
438.101 0.466700000000003
438.407 0.3667000000000016
438.714 0.5
439.02 0.466700000000003
439.327 0.48340000000000316
439.633 0.25
439.94 0.43340000000000245
440.246 0.48340000000000316
440.553 0.26670000000000016
440.859 0.4167000000000023
441.163 0.43340000000000245
441.47 0.4167000000000023
441.776 0.38340000000000174
442.083 0.3500000000000014
442.389 0.4167000000000023
442.695 0.45000000000000284
443.002 0.43340000000000245
443.308 0.38340000000000174
443.614 0.4167000000000023
443.921 0.31670000000000087
444.225 0.466700000000003
444.531 0.31670000000000087
444.838 0.20000000000000284
445.144 0.466700000000003
445.45 0.40000000000000213
445.757 0.4167000000000023
446.063 0.48340000000000316
446.369 0.5167000000000002
446.675 0.5
446.979 0.3667000000000016
447.286 0.3500000000000014
447.592 0.4167000000000023
447.898 0.31670000000000087
448.204 0.40000000000000213
448.51 0.40000000000000213
448.817 0.40000000000000213
449.121 0.3667000000000016
449.427 0.33340000000000103
449.733 0.45000000000000284
450.039 0.33340000000000103
450.345 0.583400000000001
450.651 0.40000000000000213
450.955 0.466700000000003
451.261 0.4167000000000023
451.568 0.43340000000000245
451.874 0.466700000000003
452.18 0.4167000000000023
452.486 0.31670000000000087
452.79 0.45000000000000284
453.096 0.43340000000000245
453.402 0.45000000000000284
453.708 0.3500000000000014
454.014 0.5334000000000003
454.318 0.43340000000000245
454.624 0.3000000000000007
454.93 0.5167000000000002
455.236 0.43340000000000245
455.541 0.5
455.845 0.4167000000000023
456.151 0.31670000000000087
456.457 0.4167000000000023
456.763 0.3667000000000016
457.067 0.38340000000000174
457.373 0.4167000000000023
457.679 0.48340000000000316
457.985 0.3500000000000014
458.29 0.31670000000000087
458.594 0.466700000000003
458.9 0.45000000000000284
459.206 0.38340000000000174
459.512 0.48340000000000316
459.815 0.43340000000000245
460.121 0.45000000000000284
460.427 0.3500000000000014
460.733 0.33340000000000103
461.036 0.3667000000000016
461.342 0.26670000000000016
461.648 0.45000000000000284
461.954 0.466700000000003
462.257 0.6167000000000016
462.563 0.3000000000000007
462.869 0.40000000000000213
463.172 0.40000000000000213
463.478 0.31670000000000087
463.784 0.38340000000000174
464.089 0.3667000000000016
464.393 0.31670000000000087
464.699 0.5667000000000009
465.004 0.3500000000000014
465.308 0.3500000000000014
465.613 0.3000000000000007
465.919 0.38340000000000174
466.225 0.3667000000000016
466.528 0.43340000000000245
466.834 0.4167000000000023
467.139 0.3000000000000007
467.443 0.45000000000000284
467.748 0.4167000000000023
468.054 0.4167000000000023
468.357 0.43340000000000245
468.663 0.33340000000000103
468.968 0.3667000000000016
469.272 0.5
469.577 0.40000000000000213
469.883 0.43340000000000245
470.186 0.2834000000000003
470.492 0.3500000000000014
470.797 0.43340000000000245
471.1 0.25
471.406 0.40000000000000213
471.711 0.38340000000000174
472.014 0.4167000000000023
472.32 0.2834000000000003
472.625 0.4167000000000023
472.929 0.5
473.234 0.3500000000000014
473.539 0.466700000000003
473.843 0.40000000000000213
474.148 0.48340000000000316
474.451 0.5500000000000007
474.756 0.2834000000000003
475.062 0.38340000000000174
475.365 0.45000000000000284
475.67 0.45000000000000284
475.973 0.466700000000003
476.279 0.5
476.584 0.5167000000000002
476.887 0.48340000000000316
477.192 0.43340000000000245
477.498 0.8000000000000007
477.801 0.6167000000000016
478.106 0.8667000000000016
478.409 0.6667000000000023
478.714 0.8000000000000007
479.017 0.8500000000000014
479.322 0.75
479.628 0.8834000000000017
479.931 0.6500000000000021
480.236 0.8167000000000009
480.539 0.8000000000000007
480.844 0.8000000000000007
481.147 0.75
481.452 0.7334000000000032
481.757 0.7000000000000028
482.06 0.8000000000000007
482.365 0.6667000000000023
482.668 0.75
482.973 0.716700000000003
483.276 0.8167000000000009
483.581 0.7834000000000003
483.884 0.466700000000003
484.189 0.7000000000000028
484.494 0.43340000000000245
484.797 0.466700000000003
485.102 0.4167000000000023
485.405 0.33340000000000103
485.71 0.4167000000000023
486.013 0.3000000000000007
486.318 0.40000000000000213
486.621 0.4167000000000023
486.925 0.33340000000000103
487.228 0.466700000000003
487.533 0.5334000000000003
487.836 0.38340000000000174
488.141 0.48340000000000316
488.444 0.2834000000000003
488.748 0.3500000000000014
489.051 0.2834000000000003
489.356 0.5
489.659 0.3667000000000016
489.964 0.33340000000000103
490.266 0.48340000000000316
490.571 0.26670000000000016
490.874 0.45000000000000284
491.179 0.3500000000000014
491.481 0.3667000000000016
491.786 0.33340000000000103
492.089 0.43340000000000245
492.393 0.31670000000000087
492.696 0.33340000000000103
493.001 0.3000000000000007
493.303 0.4167000000000023
493.606 0.4167000000000023
493.911 0.43340000000000245
494.213 0.43340000000000245
494.518 0.23340000000000316
494.821 0.40000000000000213
495.125 0.26670000000000016
495.428 0.3500000000000014
495.732 0.3500000000000014
496.035 0.3667000000000016
496.337 0.38340000000000174
496.642 0.3500000000000014
496.945 0.33340000000000103
497.249 0.45000000000000284
497.552 0.20000000000000284
497.856 0.38340000000000174
498.159 0.2834000000000003
498.461 0.3000000000000007
498.766 0.4167000000000023
499.068 0.3667000000000016
499.372 0.33340000000000103
499.675 0.38340000000000174
499.977 0.43340000000000245
500.282 0.5
500.584 0.33340000000000103
500.889 0.3000000000000007
501.191 0.33340000000000103
501.493 0.38340000000000174
501.798 0.3000000000000007
502.1 0.38340000000000174
502.402 0.18340000000000245
502.707 0.3500000000000014
503.009 0.33340000000000103
503.314 0.2834000000000003
503.616 0.466700000000003
503.918 0.3000000000000007
504.222 0.33340000000000103
504.525 0.33340000000000103
504.827 0.31670000000000087
505.131 0.3000000000000007
505.433 0.33340000000000103
505.736 0.3500000000000014
506.04 0.33340000000000103
506.342 0.3000000000000007
506.646 0.3500000000000014
506.949 0.33340000000000103
507.251 0.3500000000000014
507.555 0.38340000000000174
507.857 0.31670000000000087
508.159 0.3667000000000016
508.461 0.13340000000000174
508.766 0.3000000000000007
509.068 0.2834000000000003
509.37 0.25
509.674 0.3000000000000007
509.976 0.23340000000000316
510.278 0.26670000000000016
510.582 0.3000000000000007
510.884 0.3667000000000016
511.186 0.45000000000000284
511.49 0.3500000000000014
511.792 0.26670000000000016
512.094 0.4167000000000023
512.396 0.3667000000000016
512.701 0.40000000000000213
513.003 0.3500000000000014
513.305 0.38340000000000174
513.609 0.33340000000000103
513.91 0.2834000000000003
514.212 0.3000000000000007
514.514 0.38340000000000174
514.818 0.3500000000000014
515.12 0.25
515.422 0.23340000000000316
515.724 0.2834000000000003
516.028 0.38340000000000174
516.33 0.3500000000000014
516.632 0.3000000000000007
516.934 0.2834000000000003
517.237 0.3667000000000016
517.539 0.2834000000000003
517.841 0.45000000000000284
518.143 0.3000000000000007
518.447 0.33340000000000103
518.749 0.43340000000000245
519.05 0.33340000000000103
519.352 0.3500000000000014
519.656 0.26670000000000016
519.958 0.26670000000000016
520.26 0.38340000000000174
520.561 0.216700000000003
520.863 0.3667000000000016
521.167 0.26670000000000016
521.468 0.25
521.77 0.466700000000003
522.072 0.2834000000000003
522.376 0.45000000000000284
522.677 0.5500000000000007
522.979 0.38340000000000174
523.281 0.3667000000000016
523.582 0.2834000000000003
523.884 0.3500000000000014
524.187 0.3500000000000014
524.489 0.31670000000000087
524.791 0.3500000000000014
525.092 0.25
525.394 0.38340000000000174
525.697 0.3500000000000014
525.999 0.3500000000000014
526.301 0.33340000000000103
526.602 0.25
526.904 0.31670000000000087
527.205 0.25
527.507 0.26670000000000016
527.81 0.2834000000000003
528.112 0.3500000000000014
528.413 0.38340000000000174
528.715 0.3500000000000014
529.016 0.4167000000000023
529.318 0.33340000000000103
529.619 0.3000000000000007
529.922 0.3500000000000014
530.224 0.5334000000000003
530.525 0.33340000000000103
530.827 0.3500000000000014
531.128 0.43340000000000245
531.429 0.3500000000000014
531.731 0.26670000000000016
532.032 0.3000000000000007
532.336 0.31670000000000087
532.637 0.43340000000000245
532.938 0.43340000000000245
533.24 0.38340000000000174
533.541 0.33340000000000103
533.842 0.3000000000000007
534.143 0.26670000000000016
534.445 0.40000000000000213
534.746 0.26670000000000016
535.047 0.31670000000000087
535.351 0.23340000000000316
535.652 0.33340000000000103
535.953 0.31670000000000087
536.254 0.3667000000000016
536.555 0.40000000000000213
536.857 0.43340000000000245
537.158 0.31670000000000087
537.459 0.3667000000000016
537.76 0.31670000000000087
538.061 0.43340000000000245
538.362 0.3000000000000007
538.664 0.48340000000000316
538.965 0.4167000000000023
539.266 0.2834000000000003
539.567 0.38340000000000174
539.868 0.33340000000000103
540.169 0.45000000000000284
540.472 0.26670000000000016
540.773 0.43340000000000245
541.074 0.33340000000000103
541.375 0.33340000000000103
541.677 0.48340000000000316
541.978 0.3667000000000016
542.279 0.33340000000000103
542.58 0.5167000000000002
542.881 0.3000000000000007
543.182 0.31670000000000087
543.483 0.3667000000000016
543.784 0.3000000000000007
544.085 0.3667000000000016
544.385 0.4167000000000023
544.686 0.31670000000000087
544.987 0.26670000000000016
545.288 0.3500000000000014
545.589 0.5
545.89 0.31670000000000087
546.191 0.33340000000000103
546.492 0.33340000000000103
546.793 0.2834000000000003
547.094 0.43340000000000245
547.394 0.33340000000000103
547.695 0.4167000000000023
547.996 0.3000000000000007
548.297 0.5167000000000002
548.596 0.5334000000000003
548.897 0.466700000000003
549.197 0.5334000000000003
549.498 0.38340000000000174
549.799 0.33340000000000103
550.1 0.5334000000000003
550.4 0.33340000000000103
550.701 0.5
551.002 0.33340000000000103
551.303 0.5334000000000003
551.603 0.4167000000000023
551.904 0.48340000000000316
552.205 0.5334000000000003
552.505 0.5500000000000007
552.806 0.6834000000000024
553.107 0.6500000000000021
553.407 0.6834000000000024
553.706 0.5500000000000007
554.007 0.5500000000000007
554.307 0.5334000000000003
554.608 0.5167000000000002
554.909 0.5500000000000007
555.209 0.6667000000000023
555.51 0.5
555.81 0.6834000000000024
556.111 0.6167000000000016
556.411 0.38340000000000174
556.71 0.7000000000000028
557.01 0.4167000000000023
557.311 0.5667000000000009
557.612 0.5
557.912 0.6000000000000014
558.213 0.583400000000001
558.513 0.48340000000000316
558.813 0.5334000000000003
559.112 0.38340000000000174
559.412 0.3667000000000016
559.713 0.48340000000000316
560.013 0.45000000000000284
560.314 0.43340000000000245
560.614 0.38340000000000174
560.914 0.38340000000000174
561.213 0.38340000000000174
561.513 0.3500000000000014
561.814 0.466700000000003
562.114 0.3667000000000016
562.414 0.5
562.715 0.40000000000000213
563.015 0.45000000000000284
563.313 0.3500000000000014
563.614 0.33340000000000103
563.914 0.40000000000000213
564.214 0.48340000000000316
564.515 0.3500000000000014
564.813 0.38340000000000174
565.113 0.45000000000000284
565.413 0.38340000000000174
565.714 0.3500000000000014
566.014 0.38340000000000174
566.312 0.2834000000000003
566.612 0.31670000000000087
566.912 0.466700000000003
567.213 0.3000000000000007
567.513 0.3500000000000014
567.811 0.48340000000000316
568.111 0.4167000000000023
568.411 0.40000000000000213
568.712 0.40000000000000213
569.012 0.40000000000000213
569.31 0.48340000000000316
569.61 0.3500000000000014
569.91 0.3500000000000014
570.21 0.45000000000000284
570.508 0.4167000000000023
570.808 0.40000000000000213
571.108 0.38340000000000174
571.408 0.4167000000000023
571.706 0.31670000000000087
572.006 0.33340000000000103
572.306 0.5167000000000002
572.607 0.38340000000000174
572.904 0.40000000000000213
573.204 0.43340000000000245
573.505 0.3500000000000014
573.805 0.5
574.102 0.25
574.402 0.2834000000000003
574.702 0.31670000000000087
575.002 0.40000000000000213
575.3 0.33340000000000103
575.6 0.466700000000003
575.9 0.38340000000000174
576.198 0.38340000000000174
576.498 0.3000000000000007
576.798 0.216700000000003
577.098 0.3000000000000007
577.395 0.31670000000000087
577.695 0.3667000000000016
577.995 0.3000000000000007
578.293 0.43340000000000245
578.593 0.3500000000000014
578.893 0.4167000000000023
579.19 0.40000000000000213
579.49 0.3667000000000016
579.79 0.2834000000000003
580.088 0.466700000000003
580.387 0.40000000000000213
580.687 0.40000000000000213
580.985 0.33340000000000103
581.285 0.38340000000000174
581.584 0.3667000000000016
581.882 0.3667000000000016
582.182 0.38340000000000174
582.482 0.33340000000000103
582.779 0.5
583.079 0.3000000000000007
583.378 0.40000000000000213
583.676 0.31670000000000087
583.976 0.38340000000000174
584.275 0.38340000000000174
584.573 0.5167000000000002
584.873 0.33340000000000103
585.17 0.3667000000000016
585.47 0.43340000000000245
585.769 0.23340000000000316
586.067 0.31670000000000087
586.367 0.3500000000000014
586.666 0.2834000000000003
586.964 0.31670000000000087
587.263 0.40000000000000213
587.561 0.38340000000000174
587.86 0.3667000000000016
588.16 0.40000000000000213
588.457 0.5667000000000009
588.757 0.3000000000000007
589.054 0.3802365948210422
589.354 1.0230505936844168
589.653 0.7210447996188734
589.951 0.48685949176390153
590.25 0.8435582304770328
590.547 0.5721274709056559
590.847 0.41886237637480406
591.144 0.7518650287157591
591.444 0.3500000000000014
591.743 0.3000000000000007
592.04 0.38340000000000174
592.34 0.2834000000000003
592.637 0.43340000000000245
592.936 0.45000000000000284
593.234 0.216700000000003
593.533 0.33340000000000103
593.832 0.3000000000000007
594.13 0.3667000000000016
594.429 0.45000000000000284
594.726 0.31670000000000087
595.026 0.43340000000000245
595.323 0.3000000000000007
595.622 0.3500000000000014
595.919 0.45000000000000284
596.219 0.38340000000000174
596.516 0.5
596.815 0.2834000000000003
597.112 0.3500000000000014
597.411 0.5334000000000003
597.709 0.38340000000000174
598.008 0.45000000000000284
598.305 0.33340000000000103
598.604 0.43340000000000245
598.901 0.31670000000000087
599.2 0.3000000000000007
599.497 0.5334000000000003
599.797 0.3500000000000014
600.094 0.2834000000000003
600.393 0.3500000000000014
600.69 0.38340000000000174
600.989 0.33340000000000103
601.286 0.43340000000000245
601.585 0.43340000000000245
601.882 0.3667000000000016
602.181 0.33340000000000103
602.478 0.3000000000000007
602.777 0.43340000000000245
603.074 0.38340000000000174
603.373 0.40000000000000213
603.67 0.38340000000000174
603.969 0.4167000000000023
604.266 0.4167000000000023
604.563 0.33340000000000103
604.862 0.48340000000000316
605.159 0.40000000000000213
605.458 0.43340000000000245
605.755 0.33340000000000103
606.054 0.466700000000003
606.351 0.3000000000000007
606.65 0.31670000000000087
606.946 0.4167000000000023
607.243 0.3500000000000014
607.542 0.3000000000000007
607.839 0.48340000000000316
608.138 0.3500000000000014
608.435 0.43340000000000245
608.732 0.3000000000000007
609.03 0.45000000000000284
609.327 0.40000000000000213
609.626 0.466700000000003
609.923 0.4167000000000023
610.22 0.33340000000000103
610.518 0.5667000000000009
610.815 0.6334000000000017
611.114 0.3500000000000014
611.411 0.5500000000000007
611.707 0.5
612.006 0.5
612.303 0.48340000000000316
612.601 0.7000000000000028
612.898 0.4167000000000023
613.195 0.583400000000001
613.493 0.4167000000000023
613.79 0.466700000000003
614.087 0.43340000000000245
614.385 0.5334000000000003
614.682 0.38340000000000174
614.979 0.466700000000003
615.277 0.5
615.574 0.6000000000000014
615.87 0.5334000000000003
616.169 0.45000000000000284
616.466 0.3500000000000014
616.764 0.466700000000003
617.061 0.33340000000000103
617.357 0.3667000000000016
617.656 0.3667000000000016
617.952 0.33340000000000103
618.249 0.466700000000003
618.545 0.26670000000000016
618.844 0.40000000000000213
619.14 0.3000000000000007
619.437 0.5167000000000002
619.735 0.3667000000000016
620.032 0.3500000000000014
620.328 0.466700000000003
620.626 0.45000000000000284
620.923 0.5334000000000003
621.219 0.43340000000000245
621.518 0.40000000000000213
621.814 0.45000000000000284
622.11 0.33340000000000103
622.407 0.43340000000000245
622.705 0.3000000000000007
623.002 0.3667000000000016
623.298 0.5334000000000003
623.594 0.3500000000000014
623.893 0.3000000000000007
624.189 0.48340000000000316
624.485 0.38340000000000174
624.784 0.3667000000000016
625.08 0.48340000000000316
625.376 0.3500000000000014
625.672 0.38340000000000174
625.971 0.33340000000000103
626.267 0.3667000000000016
626.563 0.38340000000000174
626.859 0.5334000000000003
627.158 0.3667000000000016
627.454 0.5667000000000009
627.75 0.2834000000000003
628.046 0.38340000000000174
628.342 0.33340000000000103
628.641 0.4167000000000023
628.937 0.4167000000000023
629.233 0.466700000000003
629.529 0.3500000000000014
629.827 0.43340000000000245
630.123 0.40000000000000213
630.419 0.4167000000000023
630.715 0.40000000000000213
631.011 0.3000000000000007
631.31 0.45000000000000284
631.606 0.3000000000000007
631.902 0.48340000000000316
632.198 0.33340000000000103
632.494 0.25
632.792 0.38340000000000174
633.088 0.26670000000000016
633.384 0.4167000000000023
633.68 0.4167000000000023
633.976 0.216700000000003
634.272 0.3667000000000016
634.57 0.45000000000000284
634.866 0.2834000000000003
635.162 0.3500000000000014
635.458 0.3667000000000016
635.754 0.38340000000000174
636.05 0.33340000000000103
636.347 0.3667000000000016
636.643 0.3000000000000007
636.939 0.33340000000000103
637.235 0.33340000000000103
637.531 0.43340000000000245
637.827 0.26670000000000016
638.123 0.3667000000000016
638.421 0.33340000000000103
638.716 0.3500000000000014
639.012 0.3500000000000014
639.308 0.43340000000000245
639.604 0.31670000000000087
639.9 0.23340000000000316
640.195 0.38340000000000174
640.491 0.40000000000000213
640.789 0.40000000000000213
641.085 0.3000000000000007
641.381 0.2834000000000003
641.676 0.3667000000000016
641.972 0.3500000000000014
642.268 0.466700000000003
642.563 0.2834000000000003
642.859 0.466700000000003
643.155 0.3000000000000007
643.451 0.33340000000000103
643.746 0.43340000000000245
644.044 0.33340000000000103
644.34 0.40000000000000213
644.635 0.3667000000000016
644.931 0.2834000000000003
645.227 0.48340000000000316
645.522 0.31670000000000087
645.818 0.5
646.113 0.48340000000000316
646.409 0.3667000000000016
646.704 0.3500000000000014
647.0 0.45000000000000284
647.296 0.5
647.591 0.3500000000000014
647.887 0.26670000000000016
648.182 0.43340000000000245
648.478 0.25
648.773 0.3667000000000016
649.069 0.4167000000000023
649.366 0.48340000000000316
649.662 0.40000000000000213
649.957 0.48340000000000316
650.253 0.5667000000000009
650.548 0.5167000000000002
650.844 0.31670000000000087
651.139 0.5334000000000003
651.434 0.45000000000000284
651.73 0.466700000000003
652.025 0.2834000000000003
652.321 0.38340000000000174
652.616 0.4167000000000023
652.911 0.5
653.207 0.48340000000000316
653.502 0.38340000000000174
653.797 0.466700000000003
654.093 0.5
654.388 0.43340000000000245
654.683 0.6000000000000014
654.979 0.3500000000000014
655.274 0.5167000000000002
655.567 0.466700000000003
655.863 0.4167000000000023
656.158 0.3500000000000014
656.453 0.48340000000000316
656.748 0.5
657.044 0.6667000000000023
657.339 0.5334000000000003
657.634 0.6834000000000024
657.929 0.5334000000000003
658.224 0.6500000000000021
658.52 0.6667000000000023
658.815 0.6334000000000017
659.11 0.6500000000000021
659.405 0.6334000000000017
659.7 0.6000000000000014
659.995 0.6334000000000017
660.291 0.6500000000000021
660.586 0.7000000000000028
660.879 0.5334000000000003
661.174 0.6334000000000017
661.469 0.7334000000000032
661.764 0.583400000000001
662.059 0.8000000000000007
662.354 0.6500000000000021
662.649 0.6000000000000014
662.944 0.45000000000000284
663.239 0.6167000000000016
663.534 0.48340000000000316
663.83 0.5500000000000007
664.122 0.48340000000000316
664.417 0.6667000000000023
664.713 0.5
665.008 0.6000000000000014
665.302 0.4167000000000023
665.597 0.583400000000001
665.892 0.48340000000000316
666.187 0.5
666.48 0.5167000000000002
666.775 0.40000000000000213
667.07 0.5334000000000003
667.365 0.3667000000000016
667.66 0.45000000000000284
667.955 0.43340000000000245
668.25 0.48340000000000316
668.542 0.5667000000000009
668.837 0.3667000000000016
669.132 0.5
669.427 0.45000000000000284
669.722 0.3000000000000007
670.017 0.5
670.31 0.33340000000000103
670.604 0.48340000000000316
670.899 0.4167000000000023
671.194 0.3667000000000016
671.489 0.43340000000000245
671.783 0.43340000000000245
672.076 0.38340000000000174
672.371 0.38340000000000174
672.666 0.4167000000000023
672.96 0.40000000000000213
673.255 0.4167000000000023
673.548 0.466700000000003
673.842 0.4167000000000023
674.137 0.31670000000000087
674.432 0.216700000000003
674.727 0.33340000000000103
675.019 0.4167000000000023
675.314 0.45000000000000284
675.608 0.26670000000000016
675.903 0.45000000000000284
676.196 0.3000000000000007
676.49 0.33340000000000103
676.785 0.3500000000000014
677.079 0.38340000000000174
677.374 0.31670000000000087
677.667 0.33340000000000103
677.961 0.5334000000000003
678.256 0.43340000000000245
678.55 0.3000000000000007
678.843 0.3000000000000007
679.137 0.3500000000000014
679.432 0.3000000000000007
679.726 0.3667000000000016
680.019 0.3500000000000014
680.313 0.45000000000000284
680.608 0.3500000000000014
680.902 0.38340000000000174
681.195 0.3667000000000016
681.489 0.31670000000000087
681.784 0.5500000000000007
682.076 0.38340000000000174
682.37 0.4167000000000023
682.665 0.38340000000000174
682.959 0.33340000000000103
683.252 0.38340000000000174
683.546 0.38340000000000174
683.84 0.43340000000000245
684.133 0.40000000000000213
684.427 0.26670000000000016
684.721 0.38340000000000174
685.014 0.25
685.308 0.40000000000000213
685.602 0.40000000000000213
685.895 0.3000000000000007
686.189 0.25
686.483 0.31670000000000087
686.778 0.33340000000000103
687.07 0.216700000000003
687.364 0.40000000000000213
687.658 0.38340000000000174
687.951 0.23340000000000316
688.245 0.40000000000000213
688.537 0.33340000000000103
688.831 0.43340000000000245
689.125 0.3500000000000014
689.418 0.4167000000000023
689.712 0.466700000000003
690.006 0.3500000000000014
690.298 0.38340000000000174
690.592 0.3667000000000016
690.886 0.5
691.178 0.40000000000000213
691.473 0.25
691.767 0.38340000000000174
692.059 0.38340000000000174
692.353 0.3500000000000014
692.645 0.40000000000000213
692.939 0.3000000000000007
693.233 0.45000000000000284
693.525 0.45000000000000284
693.819 0.31670000000000087
694.111 0.3500000000000014
694.405 0.23340000000000316
694.699 0.38340000000000174
694.991 0.2834000000000003
695.285 0.43340000000000245
695.577 0.3667000000000016
695.871 0.40000000000000213
696.165 0.38340000000000174
696.457 0.33340000000000103
696.751 0.26670000000000016
697.043 0.33340000000000103
697.337 0.3000000000000007
697.629 0.3500000000000014
697.923 0.31670000000000087
698.217 0.38340000000000174
698.509 0.26670000000000016
698.802 0.3500000000000014
699.094 0.48340000000000316
699.388 0.3667000000000016
699.68 0.33340000000000103
699.974 0.25
700.266 0.43340000000000245
700.56 0.26670000000000016
700.853 0.3667000000000016
701.145 0.33340000000000103
701.439 0.3000000000000007
701.731 0.2834000000000003
702.025 0.38340000000000174
702.316 0.3500000000000014
702.61 0.4167000000000023
702.902 0.2834000000000003
703.196 0.43340000000000245
703.487 0.3667000000000016
703.781 0.3000000000000007
704.073 0.5500000000000007
704.367 0.45000000000000284
704.658 0.38340000000000174
704.952 0.3000000000000007
705.244 0.25
705.537 0.38340000000000174
705.829 0.216700000000003
706.122 0.2834000000000003
706.414 0.26670000000000016
706.708 0.33340000000000103
706.999 0.40000000000000213
707.293 0.25
