# Created: 2019-11-28 13:05:41.310565
# rshift intensity
76.1738 0.23340000000000316
76.4989 0.23340000000000316
76.824 0.1667000000000023
77.1491 0.18340000000000245
77.4721 0.10000000000000142
77.7972 0.11670000000000158
78.1223 0.13340000000000174
78.4474 0.06670000000000087
78.7724 0.11670000000000158
79.0975 0.06670000000000087
79.4204 0.03340000000000032
79.7454 0.10000000000000142
80.0704 0.08340000000000103
80.3954 0.06670000000000087
80.7204 0.06670000000000087
81.0454 0.06670000000000087
81.3682 0.10000000000000142
81.6931 0.06670000000000087
82.0181 0.11670000000000158
82.343 0.08340000000000103
82.6679 0.03340000000000032
82.9907 0.18340000000000245
83.3156 0.01670000000000016
83.6405 0.05000000000000071
83.9654 0.11670000000000158
84.2903 0.10000000000000142
84.613 0.13340000000000174
84.9378 0.03340000000000032
85.2626 0.1667000000000023
85.5875 0.08340000000000103
85.9101 0.01670000000000016
86.2349 0.06670000000000087
86.5597 0.0
86.8845 0.15000000000000213
87.2093 0.11670000000000158
87.5319 0.08340000000000103
87.8566 0.10000000000000142
88.1814 0.03340000000000032
88.5061 0.0
88.8286 0.10000000000000142
89.1533 0.06670000000000087
89.478 0.06670000000000087
89.8027 0.03340000000000032
90.1252 0.1667000000000023
90.4499 0.0
90.7745 0.10000000000000142
91.0992 0.10000000000000142
91.4216 0.03340000000000032
91.7462 0.08340000000000103
92.0708 0.10000000000000142
92.3954 0.15000000000000213
92.7179 0.08340000000000103
93.0424 0.06670000000000087
93.367 0.1667000000000023
93.6915 0.06670000000000087
94.0139 0.15000000000000213
94.3384 0.08340000000000103
94.6629 0.11670000000000158
94.9853 0.08340000000000103
95.3098 0.10000000000000142
95.6342 0.1667000000000023
95.9587 0.13340000000000174
96.281 0.06670000000000087
96.6055 0.08340000000000103
96.9299 0.08340000000000103
97.2522 0.05000000000000071
97.5766 0.18340000000000245
97.901 0.10000000000000142
98.2232 0.13340000000000174
98.5476 0.08340000000000103
98.8719 0.08340000000000103
99.1942 0.11670000000000158
99.5185 0.10000000000000142
99.8428 0.13340000000000174
100.165 0.11670000000000158
100.489 0.20000000000000284
100.814 0.03340000000000032
101.136 0.0
101.46 0.13340000000000174
101.784 0.0
102.106 0.216700000000003
102.431 0.15000000000000213
102.755 0.11670000000000158
103.077 0.06670000000000087
103.401 0.1667000000000023
103.725 0.216700000000003
104.047 0.0
104.372 0.03340000000000032
104.696 0.1667000000000023
105.018 0.05000000000000071
105.342 0.13340000000000174
105.666 0.25
105.988 0.18340000000000245
106.312 0.1667000000000023
106.634 0.13340000000000174
106.958 0.11670000000000158
107.282 0.18340000000000245
107.604 0.216700000000003
107.928 0.10000000000000142
108.252 0.05000000000000071
108.574 0.18340000000000245
108.898 0.01670000000000016
109.22 0.13340000000000174
109.544 0.11670000000000158
109.868 0.11670000000000158
110.19 0.11670000000000158
110.514 0.10000000000000142
110.836 0.06670000000000087
111.159 0.08340000000000103
111.483 0.15000000000000213
111.805 0.11670000000000158
112.129 0.05000000000000071
112.451 0.08340000000000103
112.775 0.18340000000000245
113.096 0.1667000000000023
113.42 0.11670000000000158
113.744 0.216700000000003
114.066 0.20000000000000284
114.39 0.06670000000000087
114.711 0.10000000000000142
115.035 0.10000000000000142
115.357 0.03340000000000032
115.681 0.216700000000003
116.004 0.08340000000000103
116.326 0.20000000000000284
116.65 0.13340000000000174
116.971 0.08340000000000103
117.295 0.1667000000000023
117.617 0.15000000000000213
117.94 0.20000000000000284
118.262 0.03340000000000032
118.586 0.10000000000000142
118.907 0.18340000000000245
119.231 0.13340000000000174
119.554 0.08340000000000103
119.876 0.1667000000000023
120.199 0.10000000000000142
120.521 0.216700000000003
120.845 0.01670000000000016
121.166 0.15000000000000213
121.49 0.15000000000000213
121.811 0.05000000000000071
122.135 0.15000000000000213
122.456 0.08340000000000103
122.78 0.1667000000000023
123.101 0.13340000000000174
123.424 0.1667000000000023
123.746 0.06670000000000087
124.069 0.01670000000000016
124.391 0.15000000000000213
124.714 0.11670000000000158
125.035 0.10000000000000142
125.359 0.08340000000000103
125.68 0.18340000000000245
126.004 0.13340000000000174
126.325 0.06670000000000087
126.648 0.18340000000000245
126.97 0.18340000000000245
127.291 0.05000000000000071
127.614 0.20000000000000284
127.935 0.10000000000000142
128.259 0.18340000000000245
128.58 0.1667000000000023
128.903 0.10000000000000142
129.224 0.10000000000000142
129.548 0.08340000000000103
129.869 0.11670000000000158
130.192 0.1667000000000023
130.513 0.05000000000000071
130.834 0.23340000000000316
131.158 0.13340000000000174
131.479 0.1667000000000023
131.802 0.13340000000000174
132.123 0.08340000000000103
132.446 0.15000000000000213
132.767 0.08340000000000103
133.09 0.216700000000003
133.411 0.1667000000000023
133.733 0.1667000000000023
134.056 0.13340000000000174
134.377 0.15000000000000213
134.7 0.13340000000000174
135.021 0.15000000000000213
135.342 0.10000000000000142
135.665 0.20000000000000284
135.986 0.23340000000000316
136.309 0.10000000000000142
136.63 0.08340000000000103
136.951 0.11670000000000158
137.274 0.11670000000000158
137.595 0.18340000000000245
137.918 0.08340000000000103
138.238 0.15000000000000213
138.559 0.15000000000000213
138.882 0.216700000000003
139.203 0.20000000000000284
139.526 0.1667000000000023
139.847 0.08340000000000103
140.168 0.06670000000000087
140.491 0.20000000000000284
140.811 0.1667000000000023
141.132 0.216700000000003
141.455 0.08340000000000103
141.776 0.20000000000000284
142.097 0.23340000000000316
142.419 0.13340000000000174
142.74 0.13340000000000174
143.061 0.216700000000003
143.384 0.13340000000000174
143.704 0.15000000000000213
144.027 0.15000000000000213
144.348 0.08340000000000103
144.668 0.20000000000000284
144.991 0.06670000000000087
145.312 0.11670000000000158
145.632 0.05000000000000071
145.955 0.18340000000000245
146.276 0.15000000000000213
146.596 0.11670000000000158
146.917 0.11670000000000158
147.24 0.10000000000000142
147.56 0.15000000000000213
147.881 0.13340000000000174
148.203 0.1667000000000023
148.524 0.23340000000000316
148.844 0.15000000000000213
149.167 0.13340000000000174
149.487 0.11670000000000158
149.808 0.20000000000000284
150.131 0.08340000000000103
150.451 0.11670000000000158
150.771 0.08340000000000103
151.092 0.18340000000000245
151.414 0.13340000000000174
151.735 0.11670000000000158
152.055 0.06670000000000087
152.378 0.20000000000000284
152.698 0.08340000000000103
153.018 0.10000000000000142
153.339 0.10000000000000142
153.661 0.15000000000000213
153.982 0.1667000000000023
154.302 0.1667000000000023
154.622 0.10000000000000142
154.945 0.13340000000000174
155.265 0.26670000000000016
155.585 0.1667000000000023
155.905 0.10000000000000142
156.228 0.18340000000000245
156.548 0.26670000000000016
156.868 0.20000000000000284
157.188 0.20000000000000284
157.511 0.08340000000000103
157.831 0.11670000000000158
158.151 0.216700000000003
158.471 0.10000000000000142
158.794 0.1667000000000023
159.114 0.18340000000000245
159.434 0.15000000000000213
159.754 0.15000000000000213
160.074 0.11670000000000158
160.396 0.20000000000000284
160.717 0.05000000000000071
161.037 0.25
161.357 0.1667000000000023
161.679 0.15000000000000213
161.999 0.1667000000000023
162.319 0.13340000000000174
162.639 0.25
162.959 0.10000000000000142
163.281 0.23340000000000316
163.601 0.1667000000000023
163.921 0.15000000000000213
164.241 0.1667000000000023
164.561 0.13340000000000174
164.881 0.10000000000000142
165.203 0.18340000000000245
165.523 0.18340000000000245
165.843 0.18340000000000245
166.163 0.25
166.483 0.11670000000000158
166.803 0.13340000000000174
167.125 0.20000000000000284
167.445 0.20000000000000284
167.764 0.13340000000000174
168.084 0.08340000000000103
168.404 0.216700000000003
168.724 0.18340000000000245
169.046 0.216700000000003
169.366 0.08340000000000103
169.685 0.18340000000000245
170.005 0.13340000000000174
170.325 0.20000000000000284
170.645 0.18340000000000245
170.964 0.05000000000000071
171.286 0.1667000000000023
171.606 0.10000000000000142
171.926 0.18340000000000245
172.245 0.08340000000000103
172.565 0.1667000000000023
172.885 0.20000000000000284
173.204 0.18340000000000245
173.524 0.05000000000000071
173.846 0.18340000000000245
174.166 0.1667000000000023
174.485 0.11670000000000158
174.805 0.216700000000003
175.124 0.11670000000000158
175.444 0.13340000000000174
175.764 0.1667000000000023
176.083 0.18340000000000245
176.403 0.18340000000000245
176.722 0.15000000000000213
177.044 0.11670000000000158
177.363 0.20000000000000284
177.683 0.20000000000000284
178.002 0.18340000000000245
178.322 0.1667000000000023
178.641 0.23340000000000316
178.961 0.11670000000000158
179.28 0.08340000000000103
179.6 0.23340000000000316
179.919 0.18340000000000245
180.239 0.15000000000000213
180.558 0.20000000000000284
180.877 0.20000000000000284
181.197 0.1667000000000023
181.516 0.13340000000000174
181.838 0.08340000000000103
182.157 0.06670000000000087
182.476 0.11670000000000158
182.796 0.15000000000000213
183.115 0.08340000000000103
183.434 0.18340000000000245
183.754 0.11670000000000158
184.073 0.15000000000000213
184.392 0.20000000000000284
184.712 0.20000000000000284
185.031 0.15000000000000213
185.35 0.18340000000000245
185.669 0.13340000000000174
185.989 0.08340000000000103
186.308 0.18340000000000245
186.627 0.11670000000000158
186.946 0.10000000000000142
187.265 0.26670000000000016
187.585 0.13340000000000174
187.904 0.15000000000000213
188.223 0.15000000000000213
188.542 0.1667000000000023
188.861 0.05000000000000071
189.18 0.20000000000000284
189.499 0.10000000000000142
189.818 0.23340000000000316
190.138 0.08340000000000103
190.457 0.18340000000000245
190.776 0.3500000000000014
191.095 0.08340000000000103
191.414 0.23340000000000316
191.733 0.18340000000000245
192.052 0.1667000000000023
192.371 0.10000000000000142
192.69 0.26670000000000016
193.009 0.20000000000000284
193.328 0.15000000000000213
193.647 0.26670000000000016
193.966 0.20000000000000284
194.285 0.23340000000000316
194.602 0.13340000000000174
194.92 0.1667000000000023
195.239 0.11670000000000158
195.558 0.1667000000000023
195.877 0.23340000000000316
196.196 0.11670000000000158
196.515 0.23340000000000316
196.834 0.10000000000000142
197.153 0.15000000000000213
197.471 0.2834000000000003
197.79 0.1667000000000023
198.109 0.11670000000000158
198.428 0.1667000000000023
198.747 0.216700000000003
199.065 0.1667000000000023
199.382 0.11670000000000158
199.701 0.10000000000000142
200.02 0.20000000000000284
200.338 0.10000000000000142
200.657 0.18340000000000245
200.976 0.16997886683942554
201.295 0.21308445028108736
201.613 0.26776166788320666
201.932 0.18523896831070985
202.251 0.1851003779523701
202.567 0.22796733988739604
202.886 0.19692955568379844
203.204 0.19047170082731313
203.523 0.18340000000000245
203.842 0.1667000000000023
204.16 0.10000000000000142
204.479 0.13340000000000174
204.797 0.1667000000000023
205.114 0.23340000000000316
205.433 0.11670000000000158
205.751 0.01670000000000016
206.07 0.1667000000000023
206.388 0.20000000000000284
206.707 0.20000000000000284
207.025 0.20000000000000284
207.342 0.1667000000000023
207.66 0.23340000000000316
207.979 0.20000000000000284
208.297 0.11670000000000158
208.615 0.26670000000000016
208.934 0.18340000000000245
209.25 0.1667000000000023
209.569 0.13340000000000174
209.887 0.1667000000000023
210.205 0.20000000000000284
210.524 0.1667000000000023
210.842 0.18340000000000245
211.158 0.216700000000003
211.477 0.11670000000000158
211.795 0.2834000000000003
212.113 0.13340000000000174
212.432 0.13340000000000174
212.75 0.3000000000000007
213.066 0.1667000000000023
213.385 0.23340000000000316
213.703 0.20000000000000284
214.021 0.15000000000000213
214.339 0.20000000000000284
214.656 0.20000000000000284
214.974 0.20000000000000284
215.292 0.08340000000000103
215.61 0.15000000000000213
215.926 0.18340000000000245
216.245 0.20000000000000284
216.563 0.15000000000000213
216.881 0.20000000000000284
217.199 0.1667000000000023
217.515 0.2834000000000003
217.833 0.11670000000000158
218.151 0.2834000000000003
218.469 0.31670000000000087
218.785 0.23340000000000316
219.104 0.23340000000000316
219.422 0.1667000000000023
219.74 0.15000000000000213
220.056 0.1667000000000023
220.374 0.216700000000003
220.692 0.15000000000000213
221.01 0.20000000000000284
221.326 0.25
221.644 0.216700000000003
221.962 0.3000000000000007
222.28 0.216700000000003
222.596 0.216700000000003
222.914 0.11670000000000158
223.232 0.18340000000000245
223.547 0.3000000000000007
223.865 0.216700000000003
224.183 0.216700000000003
224.501 0.20000000000000284
224.817 0.1667000000000023
225.135 0.216700000000003
225.453 0.20000000000000284
225.768 0.20000000000000284
226.086 0.20000000000000284
226.404 0.18340000000000245
226.722 0.3000000000000007
227.038 0.20000000000000284
227.355 0.10000000000000142
227.673 0.11670000000000158
227.989 0.08340000000000103
228.307 0.1667000000000023
228.625 0.11670000000000158
228.94 0.13340000000000174
229.258 0.25
229.576 0.13340000000000174
229.891 0.08340000000000103
230.209 0.1667000000000023
230.527 0.20000000000000284
230.842 0.13340000000000174
231.16 0.1667000000000023
231.478 0.216700000000003
231.793 0.10000000000000142
232.111 0.18340000000000245
232.428 0.18340000000000245
232.744 0.18340000000000245
233.062 0.23340000000000316
233.379 0.23340000000000316
233.695 0.23340000000000316
234.012 0.26670000000000016
234.33 0.15000000000000213
234.645 0.33340000000000103
234.963 0.11670000000000158
235.278 0.2834000000000003
235.596 0.25
235.913 0.216700000000003
236.229 0.20000000000000284
236.546 0.15000000000000213
236.864 0.18340000000000245
237.179 0.2834000000000003
237.497 0.25
237.812 0.23340000000000316
238.129 0.20000000000000284
238.447 0.20000000000000284
238.762 0.15000000000000213
239.08 0.08340000000000103
239.395 0.23340000000000316
239.712 0.216700000000003
240.03 0.33340000000000103
240.345 0.26670000000000016
240.662 0.2834000000000003
240.978 0.23340000000000316
241.295 0.216700000000003
241.61 0.3667000000000016
241.927 0.3000000000000007
242.245 0.23340000000000316
242.56 0.2834000000000003
242.877 0.2834000000000003
243.192 0.31670000000000087
243.51 0.2834000000000003
243.825 0.25
244.142 0.23340000000000316
244.459 0.26670000000000016
244.774 0.18340000000000245
245.092 0.216700000000003
245.407 0.3500000000000014
245.724 0.23340000000000316
246.039 0.2834000000000003
246.356 0.13340000000000174
246.671 0.25
246.988 0.20000000000000284
247.303 0.26670000000000016
247.62 0.11670000000000158
247.938 0.15000000000000213
248.253 0.13340000000000174
248.57 0.20000000000000284
248.885 0.33340000000000103
249.202 0.15000000000000213
249.517 0.1667000000000023
249.834 0.23340000000000316
250.149 0.15000000000000213
250.466 0.23340000000000316
250.781 0.23340000000000316
251.098 0.18340000000000245
251.412 0.20000000000000284
251.729 0.15000000000000213
252.044 0.08340000000000103
252.361 0.13340000000000174
252.676 0.18340000000000245
252.993 0.26670000000000016
253.308 0.13340000000000174
253.625 0.25
253.94 0.13340000000000174
254.256 0.15000000000000213
254.571 0.26670000000000016
254.888 0.1667000000000023
255.203 0.20000000000000284
255.518 0.26670000000000016
255.834 0.1667000000000023
256.149 0.18340000000000245
256.466 0.23340000000000316
256.781 0.216700000000003
257.097 0.13340000000000174
257.412 0.216700000000003
257.729 0.18340000000000245
258.044 0.20000000000000284
258.36 0.15000000000000213
258.675 0.23340000000000316
258.99 0.18340000000000245
259.306 0.23340000000000316
259.621 0.18340000000000245
259.938 0.10000000000000142
260.252 0.18340000000000245
260.569 0.13340000000000174
260.883 0.13340000000000174
261.198 0.26670000000000016
261.515 0.1667000000000023
261.829 0.26670000000000016
262.146 0.216700000000003
262.46 0.216700000000003
262.775 0.23340000000000316
263.091 0.20000000000000284
263.406 0.216700000000003
263.723 0.216700000000003
264.037 0.1667000000000023
264.354 0.25
264.668 0.1667000000000023
264.982 0.18340000000000245
265.299 0.1667000000000023
265.613 0.18340000000000245
265.928 0.1667000000000023
266.244 0.216700000000003
266.559 0.23340000000000316
266.875 0.25
267.189 0.15000000000000213
267.504 0.25
267.82 0.1667000000000023
268.134 0.20000000000000284
268.449 0.23340000000000316
268.765 0.20000000000000284
269.079 0.1667000000000023
269.394 0.23340000000000316
269.71 0.20000000000000284
270.024 0.31670000000000087
270.341 0.31670000000000087
270.655 0.18340000000000245
270.969 0.216700000000003
271.286 0.15000000000000213
271.6 0.20000000000000284
271.914 0.3000000000000007
272.23 0.23340000000000316
272.544 0.11670000000000158
272.859 0.1667000000000023
273.175 0.23340000000000316
273.489 0.3000000000000007
273.803 0.3000000000000007
274.119 0.20000000000000284
274.433 0.216700000000003
274.747 0.18340000000000245
275.062 0.26670000000000016
275.378 0.3000000000000007
275.692 0.25
276.006 0.216700000000003
276.322 0.26670000000000016
276.636 0.31670000000000087
276.95 0.18340000000000245
277.266 0.25
277.58 0.3667000000000016
277.894 0.20000000000000284
278.208 0.2834000000000003
278.524 0.26670000000000016
278.838 0.2834000000000003
279.152 0.31670000000000087
279.468 0.18340000000000245
279.782 0.23340000000000316
280.096 0.1667000000000023
280.41 0.26670000000000016
280.726 0.26670000000000016
281.04 0.216700000000003
281.354 0.3000000000000007
281.668 0.13340000000000174
281.983 0.26670000000000016
282.297 0.23340000000000316
282.611 0.26670000000000016
282.925 0.20000000000000284
283.241 0.20000000000000284
283.555 0.20000000000000284
283.868 0.23340000000000316
284.182 0.13340000000000174
284.498 0.3500000000000014
284.812 0.15000000000000213
285.126 0.216700000000003
285.439 0.3000000000000007
285.753 0.13340000000000174
286.069 0.20000000000000284
286.383 0.23340000000000316
286.696 0.1667000000000023
287.01 0.15000000000000213
287.326 0.23340000000000316
287.639 0.23340000000000316
287.953 0.216700000000003
288.267 0.15000000000000213
288.58 0.216700000000003
288.896 0.18340000000000245
289.21 0.1667000000000023
289.523 0.13340000000000174
289.837 0.216700000000003
290.15 0.20000000000000284
290.466 0.23340000000000316
290.78 0.216700000000003
291.093 0.15000000000000213
291.407 0.18340000000000245
291.72 0.216700000000003
292.034 0.3000000000000007
292.349 0.216700000000003
292.663 0.18340000000000245
292.976 0.216700000000003
293.29 0.216700000000003
293.603 0.11670000000000158
293.917 0.26670000000000016
294.232 0.1667000000000023
294.546 0.31670000000000087
294.859 0.10000000000000142
295.172 0.3667000000000016
295.486 0.216700000000003
295.799 0.3000000000000007
296.113 0.20000000000000284
296.428 0.2834000000000003
296.741 0.25
297.055 0.23340000000000316
297.368 0.2834000000000003
297.681 0.33340000000000103
297.995 0.26670000000000016
298.308 0.18340000000000245
298.621 0.13340000000000174
298.937 0.216700000000003
299.25 0.26670000000000016
299.563 0.20000000000000284
299.876 0.25
300.19 0.23340000000000316
300.503 0.216700000000003
300.816 0.23340000000000316
301.129 0.25
301.442 0.13340000000000174
301.756 0.3500000000000014
302.071 0.2834000000000003
302.384 0.23340000000000316
302.697 0.216700000000003
303.01 0.20000000000000284
303.323 0.216700000000003
303.637 0.1667000000000023
303.95 0.23340000000000316
304.263 0.216700000000003
304.576 0.25
304.889 0.20000000000000284
305.202 0.2834000000000003
305.515 0.23340000000000316
305.828 0.23340000000000316
306.141 0.3500000000000014
306.456 0.25
306.769 0.1667000000000023
307.082 0.26670000000000016
307.395 0.20000000000000284
307.708 0.216700000000003
308.021 0.13340000000000174
308.334 0.1667000000000023
308.647 0.13340000000000174
308.96 0.3000000000000007
309.273 0.33340000000000103
309.586 0.26670000000000016
309.899 0.2834000000000003
310.212 0.26670000000000016
310.525 0.31670000000000087
310.838 0.23340000000000316
311.15 0.20000000000000284
311.463 0.23340000000000316
311.776 0.23340000000000316
312.089 0.216700000000003
312.402 0.216700000000003
312.715 0.18340000000000245
313.027 0.15000000000000213
313.34 0.23340000000000316
313.653 0.216700000000003
313.966 0.23340000000000316
314.278 0.18340000000000245
314.591 0.25
314.904 0.25
315.217 0.25
315.529 0.38340000000000174
315.842 0.18340000000000245
316.155 0.2834000000000003
316.467 0.3500000000000014
316.78 0.216700000000003
317.093 0.23340000000000316
317.405 0.25
317.718 0.18340000000000245
318.031 0.3000000000000007
318.343 0.13340000000000174
318.656 0.3000000000000007
318.969 0.18340000000000245
319.281 0.3000000000000007
319.592 0.33340000000000103
319.904 0.216700000000003
320.217 0.3500000000000014
320.529 0.216700000000003
320.842 0.43340000000000245
321.154 0.1667000000000023
321.467 0.3000000000000007
321.779 0.25
322.092 0.216700000000003
322.404 0.20000000000000284
322.717 0.1667000000000023
323.029 0.3000000000000007
323.342 0.3500000000000014
323.654 0.26670000000000016
323.965 0.20000000000000284
324.277 0.23340000000000316
324.589 0.18340000000000245
324.902 0.31670000000000087
325.214 0.25
325.527 0.23340000000000316
325.839 0.25
326.151 0.38340000000000174
326.464 0.31670000000000087
326.776 0.216700000000003
327.086 0.2834000000000003
327.399 0.33340000000000103
327.711 0.38340000000000174
328.023 0.33340000000000103
328.335 0.31670000000000087
328.648 0.38340000000000174
328.96 0.33340000000000103
329.27 0.26670000000000016
329.582 0.31670000000000087
329.895 0.3500000000000014
330.207 0.466700000000003
330.519 0.5334000000000003
330.831 0.3500000000000014
331.143 0.4167000000000023
331.454 0.3000000000000007
331.766 0.466700000000003
332.078 0.40000000000000213
332.39 0.3500000000000014
332.702 0.3500000000000014
333.014 0.31670000000000087
333.326 0.216700000000003
333.636 0.4167000000000023
333.948 0.31670000000000087
334.261 0.33340000000000103
334.573 0.31670000000000087
334.885 0.40000000000000213
335.195 0.25
335.507 0.3500000000000014
335.819 0.45000000000000284
336.131 0.216700000000003
336.443 0.40000000000000213
336.753 0.20000000000000284
337.065 0.2834000000000003
337.377 0.23340000000000316
337.689 0.26670000000000016
338.001 0.3000000000000007
338.31 0.3667000000000016
338.622 0.31670000000000087
338.934 0.23340000000000316
339.246 0.25
339.558 0.2834000000000003
339.868 0.1667000000000023
340.18 0.466700000000003
340.492 0.216700000000003
340.804 0.216700000000003
341.113 0.3000000000000007
341.425 0.18340000000000245
341.737 0.33340000000000103
342.049 0.2834000000000003
342.361 0.3000000000000007
342.67 0.2834000000000003
342.982 0.23340000000000316
343.294 0.33340000000000103
343.606 0.216700000000003
343.915 0.3500000000000014
344.227 0.25
344.539 0.3500000000000014
344.849 0.38340000000000174
345.16 0.3000000000000007
345.472 0.2834000000000003
345.784 0.31670000000000087
346.093 0.33340000000000103
346.405 0.3667000000000016
346.717 0.3000000000000007
347.028 0.25
347.338 0.31670000000000087
347.649 0.466700000000003
347.961 0.466700000000003
348.271 0.216700000000003
348.582 0.38340000000000174
348.894 0.1667000000000023
349.205 0.2834000000000003
349.515 0.2834000000000003
349.826 0.25
350.138 0.3667000000000016
350.447 0.2834000000000003
350.759 0.26670000000000016
351.07 0.33340000000000103
351.38 0.20000000000000284
351.691 0.25
352.003 0.3000000000000007
352.312 0.216700000000003
352.624 0.33340000000000103
352.935 0.26670000000000016
353.245 0.4167000000000023
353.556 0.33340000000000103
353.867 0.25
354.177 0.3000000000000007
354.488 0.33340000000000103
354.799 0.26670000000000016
355.109 0.38340000000000174
355.42 0.26670000000000016
355.732 0.18340000000000245
356.041 0.25
356.352 0.31670000000000087
356.663 0.18340000000000245
356.973 0.216700000000003
357.284 0.3667000000000016
357.593 0.25
357.905 0.3500000000000014
358.216 0.23340000000000316
358.525 0.2834000000000003
358.836 0.33340000000000103
359.147 0.4167000000000023
359.457 0.43340000000000245
359.768 0.38340000000000174
360.077 0.31670000000000087
360.388 0.15000000000000213
360.699 0.3667000000000016
361.008 0.26670000000000016
361.32 0.31670000000000087
361.629 0.33340000000000103
361.94 0.31670000000000087
362.251 0.20000000000000284
362.56 0.31670000000000087
362.871 0.3000000000000007
363.18 0.33340000000000103
363.491 0.25
363.8 0.15000000000000213
364.111 0.23340000000000316
364.422 0.25
364.731 0.20000000000000284
365.042 0.3000000000000007
365.351 0.3500000000000014
365.662 0.3667000000000016
365.971 0.33340000000000103
366.282 0.25
366.593 0.40000000000000213
366.902 0.4167000000000023
367.213 0.25
367.522 0.216700000000003
367.833 0.23340000000000316
368.142 0.3667000000000016
368.453 0.23340000000000316
368.762 0.43340000000000245
369.073 0.31670000000000087
369.381 0.2834000000000003
369.692 0.15000000000000213
370.001 0.26670000000000016
370.312 0.20000000000000284
370.623 0.2834000000000003
370.932 0.3500000000000014
371.242 0.11670000000000158
371.551 0.26670000000000016
371.862 0.2834000000000003
372.171 0.2834000000000003
372.482 0.31670000000000087
372.79 0.3667000000000016
373.101 0.2834000000000003
373.41 0.216700000000003
373.721 0.3000000000000007
374.029 0.3000000000000007
374.34 0.10000000000000142
374.649 0.23340000000000316
374.959 0.40000000000000213
375.268 0.23340000000000316
375.577 0.3000000000000007
375.887 0.23340000000000316
376.196 0.31670000000000087
376.506 0.3000000000000007
376.815 0.3000000000000007
377.126 0.3667000000000016
377.434 0.10000000000000142
377.745 0.4167000000000023
378.053 0.38340000000000174
378.364 0.3667000000000016
378.672 0.31670000000000087
378.983 0.26670000000000016
379.292 0.31670000000000087
379.6 0.33340000000000103
379.911 0.31670000000000087
380.219 0.40000000000000213
380.53 0.25
380.838 0.3000000000000007
381.148 0.26670000000000016
381.457 0.23340000000000316
381.767 0.43340000000000245
382.076 0.2834000000000003
382.384 0.18340000000000245
382.695 0.33340000000000103
383.003 0.25
383.313 0.2834000000000003
383.622 0.33340000000000103
383.93 0.38340000000000174
384.24 0.26670000000000016
384.549 0.2834000000000003
384.859 0.25
385.167 0.3500000000000014
385.476 0.216700000000003
385.786 0.38340000000000174
386.094 0.25
386.405 0.3000000000000007
386.713 0.3667000000000016
387.021 0.20000000000000284
387.331 0.40000000000000213
387.64 0.216700000000003
387.948 0.3667000000000016
388.258 0.3667000000000016
388.566 0.23340000000000316
388.877 0.33340000000000103
389.185 0.3000000000000007
389.493 0.38340000000000174
389.803 0.1667000000000023
390.111 0.40000000000000213
390.419 0.216700000000003
390.729 0.31670000000000087
391.038 0.33340000000000103
391.346 0.3667000000000016
391.656 0.25
391.964 0.3667000000000016
392.272 0.3667000000000016
392.582 0.4167000000000023
392.89 0.26670000000000016
393.198 0.4167000000000023
393.508 0.26670000000000016
393.816 0.2834000000000003
394.124 0.38340000000000174
394.434 0.23340000000000316
394.742 0.23340000000000316
395.05 0.3000000000000007
395.36 0.40000000000000213
395.668 0.20000000000000284
395.976 0.18340000000000245
396.286 0.40000000000000213
396.594 0.25
396.902 0.48340000000000316
397.21 0.3500000000000014
397.52 0.33340000000000103
397.828 0.25
398.135 0.3500000000000014
398.445 0.3667000000000016
398.753 0.3500000000000014
399.061 0.3500000000000014
399.369 0.2834000000000003
399.679 0.40000000000000213
399.987 0.4167000000000023
400.294 0.25
400.604 0.26670000000000016
400.912 0.33340000000000103
401.22 0.40000000000000213
401.527 0.3667000000000016
401.837 0.3000000000000007
402.145 0.38340000000000174
402.453 0.18340000000000245
402.76 0.23340000000000316
403.07 0.3500000000000014
403.378 0.45000000000000284
403.686 0.26670000000000016
403.993 0.43340000000000245
404.303 0.38340000000000174
404.611 0.3500000000000014
404.918 0.466700000000003
405.226 0.4167000000000023
405.533 0.38340000000000174
405.843 0.3667000000000016
406.151 0.4167000000000023
406.458 0.3000000000000007
406.766 0.3667000000000016
407.076 0.3500000000000014
407.383 0.3000000000000007
407.691 0.3667000000000016
407.998 0.3000000000000007
408.306 0.4167000000000023
408.615 0.5
408.923 0.40000000000000213
409.23 0.38340000000000174
409.538 0.216700000000003
409.845 0.4167000000000023
410.153 0.48340000000000316
410.462 0.3667000000000016
410.77 0.3500000000000014
411.077 0.33340000000000103
411.384 0.3500000000000014
411.692 0.4167000000000023
412.001 0.3667000000000016
412.309 0.5167000000000002
412.616 0.25
412.923 0.4167000000000023
413.231 0.583400000000001
413.538 0.5167000000000002
413.845 0.33340000000000103
414.155 0.5667000000000009
414.462 0.6834000000000024
414.769 0.5
415.077 0.5334000000000003
415.384 0.5334000000000003
415.691 0.5667000000000009
415.999 0.45000000000000284
416.308 0.6834000000000024
416.615 0.5334000000000003
416.922 0.6334000000000017
417.23 0.7834000000000003
417.537 0.6834000000000024
417.844 0.5667000000000009
418.151 0.7334000000000032
418.458 0.833400000000001
418.768 0.8167000000000009
419.075 0.9500000000000028
419.382 1.083400000000001
419.689 0.833400000000001
419.996 0.966700000000003
420.303 0.8667000000000016
420.61 1.0167000000000002
420.918 1.1334000000000017
421.225 1.3000000000000007
421.532 1.1167000000000016
421.841 1.25
422.148 1.1500000000000021
422.455 1.1334000000000017
422.762 1.2834000000000003
423.069 1.3500000000000014
423.376 1.0334000000000003
423.683 1.2334000000000032
423.99 1.1334000000000017
424.297 1.1167000000000016
424.604 1.1500000000000021
424.911 1.1834000000000024
425.218 1.3167000000000009
425.525 1.3000000000000007
425.832 0.9334000000000024
426.139 1.3167000000000009
426.446 1.1500000000000021
426.753 0.9500000000000028
427.061 1.0667000000000009
427.368 0.9500000000000028
427.675 0.8667000000000016
427.982 0.8500000000000014
428.289 0.9500000000000028
428.596 0.716700000000003
428.903 0.6834000000000024
429.209 0.7334000000000032
429.516 0.75
429.823 0.8500000000000014
430.13 0.8167000000000009
430.437 0.7334000000000032
430.743 0.75
431.05 0.8500000000000014
431.357 0.6167000000000016
431.664 0.6167000000000016
431.97 0.7000000000000028
432.277 0.6167000000000016
432.584 0.5
432.891 0.716700000000003
433.197 0.45000000000000284
433.504 0.45000000000000284
433.811 0.5167000000000002
434.117 0.5667000000000009
434.424 0.583400000000001
434.731 0.3667000000000016
435.037 0.6000000000000014
435.344 0.5667000000000009
435.65 0.48340000000000316
435.957 0.5
436.262 0.3000000000000007
436.568 0.5500000000000007
436.875 0.45000000000000284
437.181 0.2834000000000003
437.488 0.5500000000000007
437.794 0.3500000000000014
438.101 0.4167000000000023
438.407 0.5334000000000003
438.714 0.5500000000000007
439.02 0.6000000000000014
439.327 0.40000000000000213
439.633 0.5500000000000007
439.94 0.5500000000000007
440.246 0.33340000000000103
440.553 0.45000000000000284
440.859 0.3667000000000016
441.163 0.45000000000000284
441.47 0.3667000000000016
441.776 0.4167000000000023
442.083 0.5
442.389 0.31670000000000087
442.695 0.43340000000000245
443.002 0.4167000000000023
443.308 0.38340000000000174
443.614 0.31670000000000087
443.921 0.3500000000000014
444.225 0.3500000000000014
444.531 0.5667000000000009
444.838 0.3500000000000014
445.144 0.5500000000000007
445.45 0.5
445.757 0.5500000000000007
446.063 0.466700000000003
446.369 0.466700000000003
446.675 0.45000000000000284
446.979 0.40000000000000213
447.286 0.3500000000000014
447.592 0.5
447.898 0.48340000000000316
448.204 0.5
448.51 0.45000000000000284
448.817 0.5167000000000002
449.121 0.33340000000000103
449.427 0.40000000000000213
449.733 0.45000000000000284
450.039 0.3000000000000007
450.345 0.5500000000000007
450.651 0.45000000000000284
450.955 0.40000000000000213
451.261 0.4167000000000023
451.568 0.3000000000000007
451.874 0.466700000000003
452.18 0.5500000000000007
452.486 0.40000000000000213
452.79 0.43340000000000245
453.096 0.3500000000000014
453.402 0.5
453.708 0.45000000000000284
454.014 0.466700000000003
454.318 0.3000000000000007
454.624 0.38340000000000174
454.93 0.40000000000000213
455.236 0.38340000000000174
455.541 0.38340000000000174
455.845 0.40000000000000213
456.151 0.31670000000000087
456.457 0.43340000000000245
456.763 0.466700000000003
457.067 0.26670000000000016
457.373 0.5334000000000003
457.679 0.45000000000000284
457.985 0.33340000000000103
458.29 0.3667000000000016
458.594 0.40000000000000213
458.9 0.43340000000000245
459.206 0.5334000000000003
459.512 0.33340000000000103
459.815 0.3667000000000016
460.121 0.3500000000000014
460.427 0.33340000000000103
460.733 0.33340000000000103
461.036 0.33340000000000103
461.342 0.31670000000000087
461.648 0.43340000000000245
461.954 0.2834000000000003
462.257 0.216700000000003
462.563 0.2834000000000003
462.869 0.33340000000000103
463.172 0.40000000000000213
463.478 0.33340000000000103
463.784 0.33340000000000103
464.089 0.3667000000000016
464.393 0.40000000000000213
464.699 0.45000000000000284
465.004 0.33340000000000103
465.308 0.5
465.613 0.466700000000003
465.919 0.3000000000000007
466.225 0.38340000000000174
466.528 0.38340000000000174
466.834 0.4167000000000023
467.139 0.31670000000000087
467.443 0.38340000000000174
467.748 0.43340000000000245
468.054 0.38340000000000174
468.357 0.43340000000000245
468.663 0.45000000000000284
468.968 0.45000000000000284
469.272 0.466700000000003
469.577 0.3667000000000016
469.883 0.4167000000000023
470.186 0.31670000000000087
470.492 0.3000000000000007
470.797 0.5167000000000002
471.1 0.3667000000000016
471.406 0.3500000000000014
471.711 0.3667000000000016
472.014 0.2834000000000003
472.32 0.466700000000003
472.625 0.45000000000000284
472.929 0.3500000000000014
473.234 0.45000000000000284
473.539 0.4167000000000023
473.843 0.48340000000000316
474.148 0.40000000000000213
474.451 0.38340000000000174
474.756 0.3500000000000014
475.062 0.466700000000003
475.365 0.4167000000000023
475.67 0.48340000000000316
475.973 0.5667000000000009
476.279 0.45000000000000284
476.584 0.5
476.887 0.6000000000000014
477.192 0.6167000000000016
477.498 0.8000000000000007
477.801 0.5667000000000009
478.106 0.75
478.409 0.9834000000000032
478.714 0.8667000000000016
479.017 0.8000000000000007
479.322 0.7667000000000002
479.628 0.8167000000000009
479.931 0.9834000000000032
480.236 0.9500000000000028
480.539 0.8834000000000017
480.844 0.8500000000000014
481.147 0.9167000000000023
481.452 0.7667000000000002
481.757 0.8834000000000017
482.06 0.7834000000000003
482.365 0.9167000000000023
482.668 0.9000000000000021
482.973 0.8000000000000007
483.276 0.8000000000000007
483.581 0.75
483.884 0.6667000000000023
484.189 0.48340000000000316
484.494 0.466700000000003
484.797 0.43340000000000245
485.102 0.6000000000000014
485.405 0.38340000000000174
485.71 0.40000000000000213
486.013 0.48340000000000316
486.318 0.38340000000000174
486.621 0.5167000000000002
486.925 0.31670000000000087
487.228 0.43340000000000245
487.533 0.3667000000000016
487.836 0.33340000000000103
488.141 0.40000000000000213
488.444 0.5
488.748 0.26670000000000016
489.051 0.4167000000000023
489.356 0.3000000000000007
489.659 0.43340000000000245
489.964 0.26670000000000016
490.266 0.3667000000000016
490.571 0.3500000000000014
490.874 0.3500000000000014
491.179 0.38340000000000174
491.481 0.33340000000000103
491.786 0.38340000000000174
492.089 0.3500000000000014
492.393 0.40000000000000213
492.696 0.5334000000000003
493.001 0.43340000000000245
493.303 0.3667000000000016
493.606 0.4167000000000023
493.911 0.31670000000000087
494.213 0.3667000000000016
494.518 0.2834000000000003
494.821 0.3667000000000016
495.125 0.3500000000000014
495.428 0.43340000000000245
495.732 0.3667000000000016
496.035 0.3500000000000014
496.337 0.31670000000000087
496.642 0.43340000000000245
496.945 0.23340000000000316
497.249 0.33340000000000103
497.552 0.3500000000000014
497.856 0.20000000000000284
498.159 0.38340000000000174
498.461 0.43340000000000245
498.766 0.45000000000000284
499.068 0.45000000000000284
499.372 0.33340000000000103
499.675 0.2834000000000003
499.977 0.43340000000000245
500.282 0.26670000000000016
500.584 0.31670000000000087
500.889 0.3000000000000007
501.191 0.45000000000000284
501.493 0.3667000000000016
501.798 0.40000000000000213
502.1 0.3500000000000014
502.402 0.3500000000000014
502.707 0.3000000000000007
503.009 0.31670000000000087
503.314 0.3667000000000016
503.616 0.3667000000000016
503.918 0.2834000000000003
504.222 0.31670000000000087
504.525 0.2834000000000003
504.827 0.3000000000000007
505.131 0.31670000000000087
505.433 0.48340000000000316
505.736 0.3667000000000016
506.04 0.31670000000000087
506.342 0.2834000000000003
506.646 0.3500000000000014
506.949 0.31670000000000087
507.251 0.3000000000000007
507.555 0.33340000000000103
507.857 0.2834000000000003
508.159 0.33340000000000103
508.461 0.26670000000000016
508.766 0.4167000000000023
509.068 0.31670000000000087
509.37 0.3500000000000014
509.674 0.25
509.976 0.4167000000000023
510.278 0.3000000000000007
510.582 0.3500000000000014
510.884 0.4167000000000023
511.186 0.26670000000000016
511.49 0.40000000000000213
511.792 0.3000000000000007
512.094 0.26670000000000016
512.396 0.4167000000000023
512.701 0.466700000000003
513.003 0.3000000000000007
513.305 0.38340000000000174
513.609 0.33340000000000103
513.91 0.26670000000000016
514.212 0.25
514.514 0.31670000000000087
514.818 0.3667000000000016
515.12 0.45000000000000284
515.422 0.38340000000000174
515.724 0.38340000000000174
516.028 0.40000000000000213
516.33 0.33340000000000103
516.632 0.216700000000003
516.934 0.2834000000000003
517.237 0.3000000000000007
517.539 0.2834000000000003
517.841 0.33340000000000103
518.143 0.31670000000000087
518.447 0.4167000000000023
518.749 0.40000000000000213
519.05 0.33340000000000103
519.352 0.38340000000000174
519.656 0.4167000000000023
519.958 0.33340000000000103
520.26 0.25
520.561 0.25
520.863 0.33340000000000103
521.167 0.33340000000000103
521.468 0.3500000000000014
521.77 0.5
522.072 0.466700000000003
522.376 0.40000000000000213
522.677 0.3000000000000007
522.979 0.25
523.281 0.2834000000000003
523.582 0.3000000000000007
523.884 0.3667000000000016
524.187 0.43340000000000245
524.489 0.3500000000000014
524.791 0.43340000000000245
525.092 0.31670000000000087
525.394 0.3500000000000014
525.697 0.3000000000000007
525.999 0.4167000000000023
526.301 0.43340000000000245
526.602 0.38340000000000174
526.904 0.26670000000000016
527.205 0.38340000000000174
527.507 0.40000000000000213
527.81 0.43340000000000245
528.112 0.31670000000000087
528.413 0.3667000000000016
528.715 0.31670000000000087
529.016 0.3000000000000007
529.318 0.38340000000000174
529.619 0.4167000000000023
529.922 0.3667000000000016
530.224 0.31670000000000087
530.525 0.23340000000000316
530.827 0.3500000000000014
531.128 0.2834000000000003
531.429 0.26670000000000016
531.731 0.3000000000000007
532.032 0.33340000000000103
532.336 0.466700000000003
532.637 0.3667000000000016
532.938 0.40000000000000213
533.24 0.38340000000000174
533.541 0.3000000000000007
533.842 0.31670000000000087
534.143 0.25
534.445 0.3667000000000016
534.746 0.5
535.047 0.3000000000000007
535.351 0.31670000000000087
535.652 0.26670000000000016
535.953 0.33340000000000103
536.254 0.31670000000000087
536.555 0.2834000000000003
536.857 0.43340000000000245
537.158 0.3500000000000014
537.459 0.5
537.76 0.38340000000000174
538.061 0.3000000000000007
538.362 0.26670000000000016
538.664 0.43340000000000245
538.965 0.40000000000000213
539.266 0.5167000000000002
539.567 0.3000000000000007
539.868 0.466700000000003
540.169 0.31670000000000087
540.472 0.3500000000000014
540.773 0.25
541.074 0.466700000000003
541.375 0.43340000000000245
541.677 0.3500000000000014
541.978 0.38340000000000174
542.279 0.2834000000000003
542.58 0.43340000000000245
542.881 0.43340000000000245
543.182 0.4167000000000023
543.483 0.43340000000000245
543.784 0.33340000000000103
544.085 0.33340000000000103
544.385 0.3000000000000007
544.686 0.31670000000000087
544.987 0.3500000000000014
545.288 0.4167000000000023
545.589 0.466700000000003
545.89 0.3500000000000014
546.191 0.3667000000000016
546.492 0.40000000000000213
546.793 0.43340000000000245
547.094 0.43340000000000245
547.394 0.38340000000000174
547.695 0.3000000000000007
547.996 0.38340000000000174
548.297 0.3667000000000016
548.596 0.43340000000000245
548.897 0.43340000000000245
549.197 0.3667000000000016
549.498 0.5334000000000003
549.799 0.38340000000000174
550.1 0.466700000000003
550.4 0.5500000000000007
550.701 0.43340000000000245
551.002 0.43340000000000245
551.303 0.5
551.603 0.48340000000000316
551.904 0.3667000000000016
552.205 0.31670000000000087
552.505 0.6834000000000024
552.806 0.5500000000000007
553.107 0.466700000000003
553.407 0.5667000000000009
553.706 0.5500000000000007
554.007 0.45000000000000284
554.307 0.5
554.608 0.466700000000003
554.909 0.5
555.209 0.6500000000000021
555.51 0.5167000000000002
555.81 0.583400000000001
556.111 0.466700000000003
556.411 0.43340000000000245
556.71 0.5167000000000002
557.01 0.38340000000000174
557.311 0.5334000000000003
557.612 0.6334000000000017
557.912 0.48340000000000316
558.213 0.33340000000000103
558.513 0.5
558.813 0.5
559.112 0.5
559.412 0.45000000000000284
559.713 0.48340000000000316
560.013 0.5167000000000002
560.314 0.5667000000000009
560.614 0.5167000000000002
560.914 0.3667000000000016
561.213 0.38340000000000174
561.513 0.40000000000000213
561.814 0.38340000000000174
562.114 0.466700000000003
562.414 0.43340000000000245
562.715 0.5334000000000003
563.015 0.48340000000000316
563.313 0.3500000000000014
563.614 0.48340000000000316
563.914 0.4167000000000023
564.214 0.466700000000003
564.515 0.31670000000000087
564.813 0.3000000000000007
565.113 0.5167000000000002
565.413 0.43340000000000245
565.714 0.48340000000000316
566.014 0.3500000000000014
566.312 0.3667000000000016
566.612 0.45000000000000284
566.912 0.38340000000000174
567.213 0.4167000000000023
567.513 0.33340000000000103
567.811 0.5
568.111 0.33340000000000103
568.411 0.31670000000000087
568.712 0.48340000000000316
569.012 0.3667000000000016
569.31 0.2834000000000003
569.61 0.3500000000000014
569.91 0.3667000000000016
570.21 0.5167000000000002
570.508 0.38340000000000174
570.808 0.31670000000000087
571.108 0.25
571.408 0.466700000000003
571.706 0.466700000000003
572.006 0.38340000000000174
572.306 0.33340000000000103
572.607 0.38340000000000174
572.904 0.45000000000000284
573.204 0.2834000000000003
573.505 0.4167000000000023
573.805 0.38340000000000174
574.102 0.31670000000000087
574.402 0.25
574.702 0.2834000000000003
575.002 0.38340000000000174
575.3 0.33340000000000103
575.6 0.3500000000000014
575.9 0.43340000000000245
576.198 0.45000000000000284
576.498 0.38340000000000174
576.798 0.38340000000000174
577.098 0.38340000000000174
577.395 0.25
577.695 0.466700000000003
577.995 0.33340000000000103
578.293 0.3000000000000007
578.593 0.43340000000000245
578.893 0.3000000000000007
579.19 0.5
579.49 0.2834000000000003
579.79 0.40000000000000213
580.088 0.23340000000000316
580.387 0.3000000000000007
580.687 0.38340000000000174
580.985 0.4167000000000023
581.285 0.31670000000000087
581.584 0.33340000000000103
581.882 0.40000000000000213
582.182 0.31670000000000087
582.482 0.26670000000000016
582.779 0.3667000000000016
583.079 0.45000000000000284
583.378 0.23340000000000316
583.676 0.31670000000000087
583.976 0.38340000000000174
584.275 0.40000000000000213
584.573 0.31670000000000087
584.873 0.40000000000000213
585.17 0.43340000000000245
585.47 0.38340000000000174
585.769 0.3667000000000016
586.067 0.3000000000000007
586.367 0.3667000000000016
586.666 0.4167000000000023
586.964 0.45000000000000284
587.263 0.4167000000000023
587.561 0.2834000000000003
587.86 0.3500000000000014
588.16 0.38340000000000174
588.457 0.3667000000000016
588.757 0.4167000000000023
589.054 0.23340000000000316
589.354 0.43340000000000245
589.653 0.2834000000000003
589.951 0.3500000000000014
590.25 0.4167000000000023
590.547 0.31670000000000087
590.847 0.2834000000000003
591.144 0.40000000000000213
591.444 0.26670000000000016
591.743 0.40000000000000213
592.04 0.31670000000000087
592.34 0.26670000000000016
592.637 0.33340000000000103
592.936 0.33340000000000103
593.234 0.33340000000000103
593.533 0.3667000000000016
593.832 0.3500000000000014
594.13 0.33340000000000103
594.429 0.3667000000000016
594.726 0.4167000000000023
595.026 0.3500000000000014
595.323 0.45000000000000284
595.622 0.4167000000000023
595.919 0.40000000000000213
596.219 0.38340000000000174
596.516 0.3667000000000016
596.815 0.466700000000003
597.112 0.3667000000000016
597.411 0.25
597.709 0.43340000000000245
598.008 0.5500000000000007
598.305 0.45000000000000284
598.604 0.26670000000000016
598.901 0.25
599.2 0.3667000000000016
599.497 0.2834000000000003
599.797 0.3000000000000007
600.094 0.4167000000000023
600.393 0.3000000000000007
600.69 0.33340000000000103
600.989 0.26670000000000016
601.286 0.4167000000000023
601.585 0.2834000000000003
601.882 0.38340000000000174
602.181 0.45000000000000284
602.478 0.3500000000000014
602.777 0.3500000000000014
603.074 0.3667000000000016
603.373 0.38340000000000174
603.67 0.38340000000000174
603.969 0.2834000000000003
604.266 0.3667000000000016
604.563 0.466700000000003
604.862 0.40000000000000213
605.159 0.43340000000000245
605.458 0.466700000000003
605.755 0.2834000000000003
606.054 0.45000000000000284
606.351 0.43340000000000245
606.65 0.4167000000000023
606.946 0.43340000000000245
607.243 0.38340000000000174
607.542 0.20000000000000284
607.839 0.45000000000000284
608.138 0.33340000000000103
608.435 0.45000000000000284
608.732 0.40000000000000213
609.03 0.45000000000000284
609.327 0.40000000000000213
609.626 0.5167000000000002
609.923 0.38340000000000174
610.22 0.38340000000000174
610.518 0.3000000000000007
610.815 0.583400000000001
611.114 0.43340000000000245
611.411 0.33340000000000103
611.707 0.48340000000000316
612.006 0.45000000000000284
612.303 0.48340000000000316
612.601 0.43340000000000245
612.898 0.6334000000000017
613.195 0.4167000000000023
613.493 0.40000000000000213
613.79 0.5167000000000002
614.087 0.45000000000000284
614.385 0.5667000000000009
614.682 0.38340000000000174
614.979 0.5
615.277 0.48340000000000316
615.574 0.33340000000000103
615.87 0.48340000000000316
616.169 0.48340000000000316
616.466 0.5167000000000002
616.764 0.48340000000000316
617.061 0.3000000000000007
617.357 0.466700000000003
617.656 0.45000000000000284
617.952 0.3667000000000016
618.249 0.5167000000000002
618.545 0.31670000000000087
618.844 0.5334000000000003
619.14 0.38340000000000174
619.437 0.33340000000000103
619.735 0.45000000000000284
620.032 0.3667000000000016
620.328 0.4167000000000023
620.626 0.5167000000000002
620.923 0.31670000000000087
621.219 0.3500000000000014
621.518 0.3500000000000014
621.814 0.31670000000000087
622.11 0.5334000000000003
622.407 0.2834000000000003
622.705 0.45000000000000284
623.002 0.31670000000000087
623.298 0.26670000000000016
623.594 0.2834000000000003
623.893 0.23340000000000316
624.189 0.5334000000000003
624.485 0.3667000000000016
624.784 0.26670000000000016
625.08 0.33340000000000103
625.376 0.45000000000000284
625.672 0.4167000000000023
625.971 0.33340000000000103
626.267 0.38340000000000174
626.563 0.3000000000000007
626.859 0.38340000000000174
627.158 0.45000000000000284
627.454 0.45000000000000284
627.75 0.466700000000003
628.046 0.38340000000000174
628.342 0.33340000000000103
628.641 0.45000000000000284
628.937 0.33340000000000103
629.233 0.3500000000000014
629.529 0.3500000000000014
629.827 0.3500000000000014
630.123 0.33340000000000103
630.419 0.23340000000000316
630.715 0.3667000000000016
631.011 0.3667000000000016
631.31 0.25
631.606 0.2834000000000003
631.902 0.3667000000000016
632.198 0.3500000000000014
632.494 0.45000000000000284
632.792 0.466700000000003
633.088 0.3667000000000016
633.384 0.33340000000000103
633.68 0.45000000000000284
633.976 0.38340000000000174
634.272 0.31670000000000087
634.57 0.48340000000000316
634.866 0.3500000000000014
635.162 0.466700000000003
635.458 0.43340000000000245
635.754 0.18340000000000245
636.05 0.3667000000000016
636.347 0.216700000000003
636.643 0.583400000000001
636.939 0.4167000000000023
637.235 0.23340000000000316
637.531 0.38340000000000174
637.827 0.3667000000000016
638.123 0.48340000000000316
638.421 0.31670000000000087
638.716 0.38340000000000174
639.012 0.3500000000000014
639.308 0.23340000000000316
639.604 0.26670000000000016
639.9 0.31670000000000087
640.195 0.26670000000000016
640.491 0.2834000000000003
640.789 0.31670000000000087
641.085 0.43340000000000245
641.381 0.466700000000003
641.676 0.3500000000000014
641.972 0.40000000000000213
642.268 0.38340000000000174
642.563 0.48340000000000316
642.859 0.3500000000000014
643.155 0.3667000000000016
643.451 0.23340000000000316
643.746 0.33340000000000103
644.044 0.40000000000000213
644.34 0.3000000000000007
644.635 0.3667000000000016
644.931 0.40000000000000213
645.227 0.26670000000000016
645.522 0.466700000000003
645.818 0.38340000000000174
646.113 0.26670000000000016
646.409 0.40000000000000213
646.704 0.3000000000000007
647.0 0.45000000000000284
647.296 0.2834000000000003
647.591 0.2834000000000003
647.887 0.4167000000000023
648.182 0.25
648.478 0.3500000000000014
648.773 0.45000000000000284
649.069 0.5
649.366 0.20000000000000284
649.662 0.5500000000000007
649.957 0.3500000000000014
650.253 0.4167000000000023
650.548 0.33340000000000103
650.844 0.4167000000000023
651.139 0.4167000000000023
651.434 0.40000000000000213
651.73 0.5667000000000009
652.025 0.5
652.321 0.40000000000000213
652.616 0.48340000000000316
652.911 0.5
653.207 0.48340000000000316
653.502 0.3500000000000014
653.797 0.3667000000000016
654.093 0.31670000000000087
654.388 0.48340000000000316
654.683 0.33340000000000103
654.979 0.43340000000000245
655.274 0.3667000000000016
655.567 0.6000000000000014
655.863 0.5667000000000009
656.158 0.7834000000000003
656.453 0.583400000000001
656.748 0.45000000000000284
657.044 0.6667000000000023
657.339 0.6834000000000024
657.634 0.5
657.929 0.6667000000000023
658.224 0.6667000000000023
658.52 0.716700000000003
658.815 0.6667000000000023
659.11 0.6167000000000016
659.405 0.5
659.7 0.6667000000000023
659.995 0.75
660.291 0.716700000000003
660.586 0.833400000000001
660.879 0.6667000000000023
661.174 0.7000000000000028
661.469 0.7000000000000028
661.764 0.6167000000000016
662.059 0.5500000000000007
662.354 0.5167000000000002
662.649 0.5334000000000003
662.944 0.75
663.239 0.5334000000000003
663.534 0.5667000000000009
663.83 0.48340000000000316
664.122 0.6667000000000023
664.417 0.5167000000000002
664.713 0.6000000000000014
665.008 0.6000000000000014
665.302 0.5
665.597 0.466700000000003
665.892 0.45000000000000284
666.187 0.6334000000000017
666.48 0.466700000000003
666.775 0.4167000000000023
667.07 0.5
667.365 0.4167000000000023
667.66 0.43340000000000245
667.955 0.48340000000000316
668.25 0.5334000000000003
668.542 0.48340000000000316
668.837 0.40000000000000213
669.132 0.4167000000000023
669.427 0.45000000000000284
669.722 0.466700000000003
670.017 0.466700000000003
670.31 0.4167000000000023
670.604 0.43340000000000245
670.899 0.3500000000000014
671.194 0.466700000000003
671.489 0.3000000000000007
671.783 0.48340000000000316
672.076 0.38340000000000174
672.371 0.40000000000000213
672.666 0.38340000000000174
672.96 0.43340000000000245
673.255 0.583400000000001
673.548 0.4167000000000023
673.842 0.466700000000003
674.137 0.43340000000000245
674.432 0.33340000000000103
674.727 0.40000000000000213
675.019 0.38340000000000174
675.314 0.40000000000000213
675.608 0.3000000000000007
675.903 0.40000000000000213
676.196 0.40000000000000213
676.49 0.3667000000000016
676.785 0.26670000000000016
677.079 0.31670000000000087
677.374 0.3000000000000007
677.667 0.40000000000000213
677.961 0.33340000000000103
678.256 0.3000000000000007
678.55 0.4167000000000023
678.843 0.3500000000000014
679.137 0.38340000000000174
679.432 0.38340000000000174
679.726 0.40000000000000213
680.019 0.3667000000000016
680.313 0.38340000000000174
680.608 0.40000000000000213
680.902 0.38340000000000174
681.195 0.4167000000000023
681.489 0.26670000000000016
681.784 0.4167000000000023
682.076 0.4167000000000023
682.37 0.43340000000000245
682.665 0.5
682.959 0.3500000000000014
683.252 0.466700000000003
683.546 0.31670000000000087
683.84 0.43340000000000245
684.133 0.40000000000000213
684.427 0.3500000000000014
684.721 0.38340000000000174
685.014 0.466700000000003
685.308 0.3500000000000014
685.602 0.40000000000000213
685.895 0.3500000000000014
686.189 0.48340000000000316
686.483 0.45000000000000284
686.778 0.3500000000000014
687.07 0.3500000000000014
687.364 0.2834000000000003
687.658 0.3667000000000016
687.951 0.40000000000000213
688.245 0.3667000000000016
688.537 0.48340000000000316
688.831 0.40000000000000213
689.125 0.2834000000000003
689.418 0.43340000000000245
689.712 0.31670000000000087
690.006 0.43340000000000245
690.298 0.48340000000000316
690.592 0.3667000000000016
690.886 0.31670000000000087
691.178 0.38340000000000174
691.473 0.4167000000000023
691.767 0.20000000000000284
692.059 0.4167000000000023
692.353 0.3500000000000014
692.645 0.26670000000000016
692.939 0.3667000000000016
693.233 0.38340000000000174
693.525 0.5334000000000003
693.819 0.3667000000000016
694.111 0.4167000000000023
694.405 0.3667000000000016
694.699 0.40000000000000213
694.991 0.466700000000003
695.285 0.4167000000000023
695.577 0.4167000000000023
695.871 0.3667000000000016
696.165 0.33340000000000103
696.457 0.45000000000000284
696.751 0.2834000000000003
697.043 0.31670000000000087
697.337 0.31670000000000087
697.629 0.33340000000000103
697.923 0.4167000000000023
698.217 0.43340000000000245
698.509 0.3000000000000007
698.802 0.45000000000000284
699.094 0.38340000000000174
699.388 0.40000000000000213
699.68 0.40000000000000213
699.974 0.40000000000000213
700.266 0.31670000000000087
700.56 0.23340000000000316
700.853 0.3500000000000014
701.145 0.45000000000000284
701.439 0.40000000000000213
701.731 0.3500000000000014
702.025 0.40000000000000213
702.316 0.33340000000000103
702.61 0.31670000000000087
702.902 0.3667000000000016
703.196 0.38340000000000174
703.487 0.3667000000000016
703.781 0.3667000000000016
704.073 0.38340000000000174
704.367 0.38340000000000174
704.658 0.33340000000000103
704.952 0.40000000000000213
705.244 0.3500000000000014
705.537 0.2834000000000003
705.829 0.3500000000000014
706.122 0.25
706.414 0.38340000000000174
706.708 0.38340000000000174
706.999 0.33340000000000103
707.293 0.26670000000000016
