# Created: 2019-11-28 14:15:03.528877
# rshift intensity
76.1738 0.07667000000000002
76.4989 0.08999999999999986
76.824 0.07000000000000028
77.1491 0.10000000000000009
77.4721 0.10667000000000026
77.7972 0.10000000000000009
78.1223 0.10667000000000026
78.4474 0.06667000000000023
78.7724 0.06000000000000005
79.0975 0.03000000000000025
79.4204 0.05667
79.7454 0.04667000000000021
80.0704 0.040000000000000036
80.3954 0.026670000000000194
80.7204 0.02334000000000014
81.0454 0.040000000000000036
81.3682 0.03666999999999998
81.6931 0.050000000000000266
82.0181 0.0033400000000001207
82.343 0.06000000000000005
82.6679 0.03000000000000025
82.9907 0.006670000000000176
83.3156 0.026670000000000194
83.6405 0.033339999999999925
83.9654 0.043340000000000156
84.2903 0.033339999999999925
84.613 0.03000000000000025
84.9378 0.043340000000000156
85.2626 0.043340000000000156
85.5875 0.07333999999999996
85.9101 0.06000000000000005
86.2349 0.07000000000000028
86.5597 0.08000000000000007
86.8845 0.06667000000000023
87.2093 0.03666999999999998
87.5319 0.02334000000000014
87.8566 0.02334000000000014
88.1814 0.06334000000000017
88.5061 0.026670000000000194
88.8286 0.03000000000000025
89.1533 0.020000000000000018
89.478 0.050000000000000266
89.8027 0.033339999999999925
90.1252 0.07000000000000028
90.4499 0.02334000000000014
90.7745 0.050000000000000266
91.0992 0.040000000000000036
91.4216 0.07000000000000028
91.7462 0.010000000000000231
92.0708 0.040000000000000036
92.3954 0.020000000000000018
92.7179 0.03000000000000025
93.0424 0.026670000000000194
93.367 0.043340000000000156
93.6915 0.06334000000000017
94.0139 0.040000000000000036
94.3384 0.033339999999999925
94.6629 0.033339999999999925
94.9853 0.040000000000000036
95.3098 0.05667
95.6342 0.040000000000000036
95.9587 0.02334000000000014
96.281 0.020000000000000018
96.6055 0.0
96.9299 0.026670000000000194
97.2522 0.020000000000000018
97.5766 0.043340000000000156
97.901 0.06000000000000005
98.2232 0.040000000000000036
98.5476 0.040000000000000036
98.8719 0.03000000000000025
99.1942 0.04667000000000021
99.5185 0.03000000000000025
99.8428 0.02334000000000014
100.165 0.03666999999999998
100.489 0.06334000000000017
100.814 0.033339999999999925
101.136 0.050000000000000266
101.46 0.040000000000000036
101.784 0.03000000000000025
102.106 0.05667
102.431 0.050000000000000266
102.755 0.06667000000000023
103.077 0.07000000000000028
103.401 0.016669999999999963
103.725 0.09333999999999998
104.047 0.050000000000000266
104.372 0.05333999999999994
104.696 0.020000000000000018
105.018 0.07667000000000002
105.342 0.07000000000000028
105.666 0.06667000000000023
105.988 0.040000000000000036
106.312 0.06334000000000017
106.634 0.02334000000000014
106.958 0.050000000000000266
107.282 0.06667000000000023
107.604 0.08000000000000007
107.928 0.06667000000000023
108.252 0.07000000000000028
108.574 0.05667
108.898 0.06667000000000023
109.22 0.06334000000000017
109.544 0.06334000000000017
109.868 0.013339999999999907
110.19 0.043340000000000156
110.514 0.033339999999999925
110.836 0.03666999999999998
111.159 0.07000000000000028
111.483 0.033339999999999925
111.805 0.026670000000000194
112.129 0.03666999999999998
112.451 0.03666999999999998
112.775 0.016669999999999963
113.096 0.03666999999999998
113.42 0.043340000000000156
113.744 0.040000000000000036
114.066 0.03000000000000025
114.39 0.05333999999999994
114.711 0.043340000000000156
115.035 0.06667000000000023
115.357 0.010000000000000231
115.681 0.05667
116.004 0.03666999999999998
116.326 0.050000000000000266
116.65 0.07000000000000028
116.971 0.06667000000000023
117.295 0.050000000000000266
117.617 0.043340000000000156
117.94 0.033339999999999925
118.262 0.04667000000000021
118.586 0.050000000000000266
118.907 0.09667000000000003
119.231 0.020000000000000018
119.554 0.050000000000000266
119.876 0.043340000000000156
120.199 0.040000000000000036
120.521 0.07333999999999996
120.845 0.05667
121.166 0.06334000000000017
121.49 0.040000000000000036
121.811 0.043340000000000156
122.135 0.026670000000000194
122.456 0.016669999999999963
122.78 0.07333999999999996
123.101 0.05333999999999994
123.424 0.06334000000000017
123.746 0.07667000000000002
124.069 0.07667000000000002
124.391 0.03000000000000025
124.714 0.04667000000000021
125.035 0.03666999999999998
125.359 0.033339999999999925
125.68 0.050000000000000266
126.004 0.06334000000000017
126.325 0.05333999999999994
126.648 0.033339999999999925
126.97 0.033339999999999925
127.291 0.05333999999999994
127.614 0.06667000000000023
127.935 0.04667000000000021
128.259 0.08334000000000019
128.58 0.08667000000000025
128.903 0.06000000000000005
129.224 0.050000000000000266
129.548 0.03000000000000025
129.869 0.08000000000000007
130.192 0.10000000000000009
130.513 0.08999999999999986
130.834 0.07333999999999996
131.158 0.08667000000000025
131.479 0.11334
131.802 0.05667
132.123 0.09667000000000003
132.446 0.08000000000000007
132.767 0.08667000000000025
133.09 0.07667000000000002
133.411 0.07667000000000002
133.733 0.08000000000000007
134.056 0.08999999999999986
134.377 0.08667000000000025
134.7 0.05333999999999994
135.021 0.08000000000000007
135.342 0.07667000000000002
135.665 0.040000000000000036
135.986 0.07000000000000028
136.309 0.040000000000000036
136.63 0.07000000000000028
136.951 0.04667000000000021
137.274 0.03000000000000025
137.595 0.03666999999999998
137.918 0.043340000000000156
138.238 0.08000000000000007
138.559 0.006670000000000176
138.882 0.08000000000000007
139.203 0.10000000000000009
139.526 0.07333999999999996
139.847 0.06000000000000005
140.168 0.08334000000000019
140.491 0.08667000000000025
140.811 0.08334000000000019
141.132 0.04667000000000021
141.455 0.09667000000000003
141.776 0.09667000000000003
142.097 0.06667000000000023
142.419 0.07333999999999996
142.74 0.05333999999999994
143.061 0.08667000000000025
143.384 0.07667000000000002
143.704 0.10000000000000009
144.027 0.08667000000000025
144.348 0.07667000000000002
144.668 0.04667000000000021
144.991 0.08667000000000025
145.312 0.09333999999999998
145.632 0.08667000000000025
145.955 0.07667000000000002
146.276 0.07000000000000028
146.596 0.08000000000000007
146.917 0.05667
147.24 0.07667000000000002
147.56 0.040000000000000036
147.881 0.11667000000000005
148.203 0.05667
148.524 0.05667
148.844 0.07667000000000002
149.167 0.04667000000000021
149.487 0.06000000000000005
149.808 0.08334000000000019
150.131 0.06000000000000005
150.451 0.08667000000000025
150.771 0.050000000000000266
151.092 0.033339999999999925
151.414 0.05333999999999994
151.735 0.05333999999999994
152.055 0.08000000000000007
152.378 0.07000000000000028
152.698 0.08000000000000007
153.018 0.08000000000000007
153.339 0.05667
153.661 0.050000000000000266
153.982 0.050000000000000266
154.302 0.07000000000000028
154.622 0.07333999999999996
154.945 0.03666999999999998
155.265 0.04667000000000021
155.585 0.040000000000000036
155.905 0.06334000000000017
156.228 0.06667000000000023
156.548 0.08667000000000025
156.868 0.07000000000000028
157.188 0.05333999999999994
157.511 0.07000000000000028
157.831 0.07000000000000028
158.151 0.10334000000000021
158.471 0.05333999999999994
158.794 0.06334000000000017
159.114 0.08000000000000007
159.434 0.07333999999999996
159.754 0.07333999999999996
160.074 0.08334000000000019
160.396 0.050000000000000266
160.717 0.07667000000000002
161.037 0.05667
161.357 0.08667000000000025
161.679 0.1200000000000001
161.999 0.06334000000000017
162.319 0.09667000000000003
162.639 0.08667000000000025
162.959 0.06667000000000023
163.281 0.06667000000000023
163.601 0.06667000000000023
163.921 0.08000000000000007
164.241 0.05333999999999994
164.561 0.08999999999999986
164.881 0.07667000000000002
165.203 0.06334000000000017
165.523 0.06334000000000017
165.843 0.09667000000000003
166.163 0.08667000000000025
166.483 0.09333999999999998
166.803 0.050000000000000266
167.125 0.08334000000000019
167.445 0.13334000000000001
167.764 0.12334000000000023
168.084 0.07667000000000002
168.404 0.07333999999999996
168.724 0.11334
169.046 0.07000000000000028
169.366 0.10000000000000009
169.685 0.10999999999999988
170.005 0.08999999999999986
170.325 0.07667000000000002
170.645 0.09333999999999998
170.964 0.07667000000000002
171.286 0.08334000000000019
171.606 0.09333999999999998
171.926 0.08000000000000007
172.245 0.06667000000000023
172.565 0.06000000000000005
172.885 0.08667000000000025
173.204 0.08000000000000007
173.524 0.08999999999999986
173.846 0.06334000000000017
174.166 0.10000000000000009
174.485 0.06334000000000017
174.805 0.06000000000000005
175.124 0.09667000000000003
175.444 0.08000000000000007
175.764 0.09333999999999998
176.083 0.08000000000000007
176.403 0.08334000000000019
176.722 0.07667000000000002
177.044 0.05333999999999994
177.363 0.10000000000000009
177.683 0.06667000000000023
178.002 0.08000000000000007
178.322 0.08667000000000025
178.641 0.09667000000000003
178.961 0.06334000000000017
179.28 0.11334
179.6 0.07667000000000002
179.919 0.09667000000000003
180.239 0.06334000000000017
180.558 0.08667000000000025
180.877 0.04667000000000021
181.197 0.08000000000000007
181.516 0.07000000000000028
181.838 0.10000000000000009
182.157 0.06667000000000023
182.476 0.08334000000000019
182.796 0.10999999999999988
183.115 0.09333999999999998
183.434 0.08667000000000025
183.754 0.043340000000000156
184.073 0.06667000000000023
184.392 0.08999999999999986
184.712 0.10334000000000021
185.031 0.08667000000000025
185.35 0.05333999999999994
185.669 0.08334000000000019
185.989 0.10000000000000009
186.308 0.07333999999999996
186.627 0.10334000000000021
186.946 0.09667000000000003
187.265 0.10334000000000021
187.585 0.08000000000000007
187.904 0.09667000000000003
188.223 0.11334
188.542 0.08334000000000019
188.861 0.08999999999999986
189.18 0.08000000000000007
189.499 0.06334000000000017
189.818 0.043340000000000156
190.138 0.12334000000000023
190.457 0.06334000000000017
190.776 0.06334000000000017
191.095 0.09333999999999998
191.414 0.10334000000000021
191.733 0.08334000000000019
192.052 0.08000000000000007
192.371 0.11667000000000005
192.69 0.08667000000000025
193.009 0.1200000000000001
193.328 0.08334000000000019
193.647 0.13334000000000001
193.966 0.07667000000000002
194.285 0.06334000000000017
194.602 0.050000000000000266
194.92 0.08667000000000025
195.239 0.08999999999999986
195.558 0.07333999999999996
195.877 0.08999999999999986
196.196 0.09667000000000003
196.515 0.07333999999999996
196.834 0.07667000000000002
197.153 0.07667000000000002
197.471 0.09333999999999998
197.79 0.09667000000000003
198.109 0.07667000000000002
198.428 0.08334000000000019
198.747 0.09667000000000003
199.065 0.033339999999999925
199.382 0.07333999999999996
199.701 0.10000000000000009
200.02 0.15334000000000003
200.338 0.13667000000000007
200.657 0.10334000000000021
200.976 0.09333999999999998
201.295 0.09667000000000003
201.613 0.08000000000000007
201.932 0.06000000000000005
202.251 0.08667000000000025
202.567 0.1299999999999999
202.886 0.09333999999999998
203.204 0.09667000000000003
203.523 0.08667000000000025
203.842 0.08667000000000025
204.16 0.09667000000000003
204.479 0.07667000000000002
204.797 0.10000000000000009
205.114 0.09667000000000003
205.433 0.10667000000000026
205.751 0.1200000000000001
206.07 0.10334000000000021
206.388 0.11667000000000005
206.707 0.08667000000000025
207.025 0.12667000000000028
207.342 0.08000000000000007
207.66 0.10334000000000021
207.979 0.1566700000000001
208.297 0.12667000000000028
208.615 0.09667000000000003
208.934 0.11334
209.25 0.10999999999999988
209.569 0.09667000000000003
209.887 0.07667000000000002
210.205 0.1200000000000001
210.524 0.10667000000000026
210.842 0.10667000000000026
211.158 0.10334000000000021
211.477 0.08334000000000019
211.795 0.11334
212.113 0.1566700000000001
212.432 0.07333999999999996
212.75 0.08667000000000025
213.066 0.10667000000000026
213.385 0.14000000000000012
213.703 0.10334000000000021
214.021 0.10000000000000009
214.339 0.10999999999999988
214.656 0.11334
214.974 0.15334000000000003
215.292 0.06000000000000005
215.61 0.09333999999999998
215.926 0.11667000000000005
216.245 0.09333999999999998
216.563 0.11334
216.881 0.12667000000000028
217.199 0.13667000000000007
217.515 0.10334000000000021
217.833 0.11667000000000005
218.151 0.14334000000000024
218.469 0.1566700000000001
218.785 0.09667000000000003
219.104 0.13667000000000007
219.422 0.11334
219.74 0.12334000000000023
220.056 0.09333999999999998
220.374 0.10000000000000009
220.692 0.09333999999999998
221.01 0.06667000000000023
221.326 0.08999999999999986
221.644 0.14334000000000024
221.962 0.09333999999999998
222.28 0.10334000000000021
222.596 0.10999999999999988
222.914 0.08999999999999986
223.232 0.11334
223.547 0.08999999999999986
223.865 0.11334
224.183 0.10667000000000026
224.501 0.12667000000000028
224.817 0.10999999999999988
225.135 0.11667000000000005
225.453 0.1200000000000001
225.768 0.12334000000000023
226.086 0.10999999999999988
226.404 0.08334000000000019
226.722 0.1200000000000001
227.038 0.10999999999999988
227.355 0.14666999999999986
227.673 0.09667000000000003
227.989 0.13334000000000001
228.307 0.12667000000000028
228.625 0.12334000000000023
228.94 0.12667000000000028
229.258 0.12334000000000023
229.576 0.12667000000000028
229.891 0.1200000000000001
230.209 0.12334000000000023
230.527 0.13667000000000007
230.842 0.14000000000000012
231.16 0.1200000000000001
231.478 0.15334000000000003
231.793 0.15334000000000003
232.111 0.16000000000000014
232.428 0.14334000000000024
232.744 0.11334
233.062 0.1200000000000001
233.379 0.1200000000000001
233.695 0.14334000000000024
234.012 0.10667000000000026
234.33 0.10667000000000026
234.645 0.14000000000000012
234.963 0.15334000000000003
235.278 0.13667000000000007
235.596 0.1299999999999999
235.913 0.11667000000000005
236.229 0.12667000000000028
236.546 0.14666999999999986
236.864 0.13334000000000001
237.179 0.11667000000000005
237.497 0.1299999999999999
237.812 0.14334000000000024
238.129 0.13667000000000007
238.447 0.10999999999999988
238.762 0.14000000000000012
239.08 0.1566700000000001
239.395 0.14666999999999986
239.712 0.13667000000000007
240.03 0.14000000000000012
240.345 0.15334000000000003
240.662 0.1566700000000001
240.978 0.11334
241.295 0.1299999999999999
241.61 0.1566700000000001
241.927 0.15334000000000003
242.245 0.13667000000000007
242.56 0.18334000000000028
242.877 0.1766700000000001
243.192 0.16334000000000026
243.51 0.13667000000000007
243.825 0.18999999999999995
244.142 0.16334000000000026
244.459 0.16334000000000026
244.774 0.15334000000000003
245.092 0.16999999999999993
245.407 0.1566700000000001
245.724 0.14334000000000024
246.039 0.14000000000000012
246.356 0.1566700000000001
246.671 0.1299999999999999
246.988 0.11334
247.303 0.16000000000000014
247.62 0.13334000000000001
247.938 0.13667000000000007
248.253 0.11334
248.57 0.15334000000000003
248.885 0.11667000000000005
249.202 0.1200000000000001
249.517 0.10999999999999988
249.834 0.11667000000000005
250.149 0.10667000000000026
250.466 0.14334000000000024
250.781 0.10667000000000026
251.098 0.12667000000000028
251.412 0.1200000000000001
251.729 0.12667000000000028
252.044 0.12667000000000028
252.361 0.14000000000000012
252.676 0.10000000000000009
252.993 0.11334
253.308 0.1200000000000001
253.625 0.14000000000000012
253.94 0.10999999999999988
254.256 0.08334000000000019
254.571 0.11667000000000005
254.888 0.13334000000000001
255.203 0.10667000000000026
255.518 0.11667000000000005
255.834 0.1200000000000001
256.149 0.1566700000000001
256.466 0.12667000000000028
256.781 0.11667000000000005
257.097 0.12334000000000023
257.412 0.10000000000000009
257.729 0.10334000000000021
258.044 0.16334000000000026
258.36 0.14000000000000012
258.675 0.13667000000000007
258.99 0.12667000000000028
259.306 0.1299999999999999
259.621 0.14000000000000012
259.938 0.16334000000000026
260.252 0.13667000000000007
260.569 0.1299999999999999
260.883 0.16999999999999993
261.198 0.13667000000000007
261.515 0.1299999999999999
261.829 0.16334000000000026
262.146 0.13667000000000007
262.46 0.14000000000000012
262.775 0.1499999999999999
263.091 0.13334000000000001
263.406 0.10667000000000026
263.723 0.13334000000000001
264.037 0.13334000000000001
264.354 0.11334
264.668 0.09333999999999998
264.982 0.11667000000000005
265.299 0.11667000000000005
265.613 0.1200000000000001
265.928 0.13334000000000001
266.244 0.15334000000000003
266.559 0.15334000000000003
266.875 0.12667000000000028
267.189 0.12334000000000023
267.504 0.11667000000000005
267.82 0.1499999999999999
268.134 0.09667000000000003
268.449 0.12667000000000028
268.765 0.14334000000000024
269.079 0.10334000000000021
269.394 0.12334000000000023
269.71 0.11667000000000005
270.024 0.16000000000000014
270.341 0.1200000000000001
270.655 0.12667000000000028
270.969 0.1299999999999999
271.286 0.1299999999999999
271.6 0.16999999999999993
271.914 0.14334000000000024
272.23 0.10999999999999988
272.544 0.12667000000000028
272.859 0.12667000000000028
273.175 0.1299999999999999
273.489 0.13334000000000001
273.803 0.08667000000000025
274.119 0.14000000000000012
274.433 0.12667000000000028
274.747 0.16334000000000026
275.062 0.13334000000000001
275.378 0.14000000000000012
275.692 0.14334000000000024
276.006 0.16334000000000026
276.322 0.10000000000000009
276.636 0.12334000000000023
276.95 0.12334000000000023
277.266 0.16000000000000014
277.58 0.14334000000000024
277.894 0.12667000000000028
278.208 0.12667000000000028
278.524 0.14334000000000024
278.838 0.13667000000000007
279.152 0.12334000000000023
279.468 0.16666999999999987
279.782 0.16334000000000026
280.096 0.16666999999999987
280.41 0.14000000000000012
280.726 0.15334000000000003
281.04 0.1499999999999999
281.354 0.11334
281.668 0.16000000000000014
281.983 0.15334000000000003
282.297 0.14666999999999986
282.611 0.14000000000000012
282.925 0.1499999999999999
283.241 0.1299999999999999
283.555 0.1299999999999999
283.868 0.12667000000000028
284.182 0.1566700000000001
284.498 0.13667000000000007
284.812 0.13334000000000001
285.126 0.17334000000000005
285.439 0.12334000000000023
285.753 0.14666999999999986
286.069 0.1499999999999999
286.383 0.1499999999999999
286.696 0.16000000000000014
287.01 0.16000000000000014
287.326 0.16000000000000014
287.639 0.1499999999999999
287.953 0.13667000000000007
288.267 0.1566700000000001
288.58 0.08999999999999986
288.896 0.16334000000000026
289.21 0.13667000000000007
289.523 0.14666999999999986
289.837 0.11667000000000005
290.15 0.13334000000000001
290.466 0.14000000000000012
290.78 0.10000000000000009
291.093 0.16666999999999987
291.407 0.16666999999999987
291.72 0.15334000000000003
292.034 0.12667000000000028
292.349 0.16666999999999987
292.663 0.14334000000000024
292.976 0.10999999999999988
293.29 0.1566700000000001
293.603 0.10334000000000021
293.917 0.11667000000000005
294.232 0.16999999999999993
294.546 0.14334000000000024
294.859 0.13334000000000001
295.172 0.16999999999999993
295.486 0.14666999999999986
295.799 0.16000000000000014
296.113 0.13667000000000007
296.428 0.13667000000000007
296.741 0.12667000000000028
297.055 0.14666999999999986
297.368 0.13667000000000007
297.681 0.1499999999999999
297.995 0.1566700000000001
298.308 0.10667000000000026
298.621 0.16000000000000014
298.937 0.14666999999999986
299.25 0.13667000000000007
299.563 0.12667000000000028
299.876 0.14334000000000024
300.19 0.1566700000000001
300.503 0.14666999999999986
300.816 0.12667000000000028
301.129 0.14334000000000024
301.442 0.15334000000000003
301.756 0.13667000000000007
302.071 0.15334000000000003
302.384 0.1200000000000001
302.697 0.13667000000000007
303.01 0.13334000000000001
303.323 0.14666999999999986
303.637 0.13334000000000001
303.95 0.15334000000000003
304.263 0.14000000000000012
304.576 0.10334000000000021
304.889 0.1566700000000001
305.202 0.14000000000000012
305.515 0.18000000000000016
305.828 0.1499999999999999
306.141 0.14334000000000024
306.456 0.13667000000000007
306.769 0.15334000000000003
307.082 0.12334000000000023
307.395 0.1566700000000001
307.708 0.16666999999999987
308.021 0.13334000000000001
308.334 0.1200000000000001
308.647 0.17334000000000005
308.96 0.1200000000000001
309.273 0.1566700000000001
309.586 0.14666999999999986
309.899 0.1499999999999999
310.212 0.14000000000000012
310.525 0.14334000000000024
310.838 0.12667000000000028
311.15 0.1499999999999999
311.463 0.16666999999999987
311.776 0.15334000000000003
312.089 0.11334
312.402 0.1499999999999999
312.715 0.1499999999999999
313.027 0.2066699999999999
313.34 0.16666999999999987
313.653 0.18000000000000016
313.966 0.16666999999999987
314.278 0.16666999999999987
314.591 0.18000000000000016
314.904 0.13667000000000007
315.217 0.10000000000000009
315.529 0.1566700000000001
315.842 0.17334000000000005
316.155 0.17334000000000005
316.467 0.10334000000000021
316.78 0.18999999999999995
317.093 0.1566700000000001
317.405 0.14000000000000012
317.718 0.15334000000000003
318.031 0.1566700000000001
318.343 0.1299999999999999
318.656 0.10667000000000026
318.969 0.18000000000000016
319.281 0.16334000000000026
319.592 0.16999999999999993
319.904 0.16000000000000014
320.217 0.16000000000000014
320.529 0.16666999999999987
320.842 0.2066699999999999
321.154 0.16999999999999993
321.467 0.1866699999999999
321.779 0.19334000000000007
322.092 0.18334000000000028
322.404 0.14334000000000024
322.717 0.16000000000000014
323.029 0.17334000000000005
323.342 0.18334000000000028
323.654 0.18334000000000028
323.965 0.1499999999999999
324.277 0.1566700000000001
324.589 0.18000000000000016
324.902 0.14334000000000024
325.214 0.18000000000000016
325.527 0.1866699999999999
325.839 0.16000000000000014
326.151 0.18999999999999995
326.464 0.1766700000000001
326.776 0.16000000000000014
327.086 0.17334000000000005
327.399 0.2066699999999999
327.711 0.20999999999999996
328.023 0.18334000000000028
328.335 0.20999999999999996
328.648 0.2200000000000002
328.96 0.21334000000000009
329.27 0.20333999999999985
329.582 0.21334000000000009
329.895 0.2066699999999999
330.207 0.22333999999999987
330.519 0.22666999999999993
330.831 0.27666999999999975
331.143 0.22999999999999998
331.454 0.21334000000000009
331.766 0.24666999999999994
332.078 0.2799999999999998
332.39 0.27
332.702 0.25
333.014 0.27666999999999975
333.326 0.27
333.636 0.2633399999999999
333.948 0.26000000000000023
334.261 0.2966700000000002
334.573 0.26000000000000023
334.885 0.2200000000000002
335.195 0.25
335.507 0.2066699999999999
335.819 0.2433399999999999
336.131 0.2433399999999999
336.443 0.2200000000000002
336.753 0.20999999999999996
337.065 0.22666999999999993
337.377 0.2333400000000001
337.689 0.24666999999999994
338.001 0.21667000000000014
338.31 0.18999999999999995
338.622 0.20999999999999996
338.934 0.19667000000000012
339.246 0.2066699999999999
339.558 0.21667000000000014
339.868 0.19667000000000012
340.18 0.1766700000000001
340.492 0.18334000000000028
340.804 0.22999999999999998
341.113 0.19334000000000007
341.425 0.2066699999999999
341.737 0.20000000000000018
342.049 0.20333999999999985
342.361 0.22999999999999998
342.67 0.21334000000000009
342.982 0.20333999999999985
343.294 0.16334000000000026
343.606 0.2066699999999999
343.915 0.22666999999999993
344.227 0.20333999999999985
344.539 0.21667000000000014
344.849 0.19667000000000012
345.16 0.2200000000000002
345.472 0.21667000000000014
345.784 0.2200000000000002
346.093 0.2200000000000002
346.405 0.1866699999999999
346.717 0.25
347.028 0.16334000000000026
347.338 0.2433399999999999
347.649 0.24666999999999994
347.961 0.2433399999999999
348.271 0.22666999999999993
348.582 0.22999999999999998
348.894 0.21334000000000009
349.205 0.20999999999999996
349.515 0.22999999999999998
349.826 0.21334000000000009
350.138 0.2433399999999999
350.447 0.24666999999999994
350.759 0.20000000000000018
351.07 0.22333999999999987
351.38 0.2400000000000002
351.691 0.22333999999999987
352.003 0.20333999999999985
352.312 0.21334000000000009
352.624 0.2333400000000001
352.935 0.22333999999999987
353.245 0.21667000000000014
353.556 0.2533400000000001
353.867 0.20333999999999985
354.177 0.22333999999999987
354.488 0.19334000000000007
354.799 0.2066699999999999
355.109 0.2333400000000001
355.42 0.20000000000000018
355.732 0.2200000000000002
356.041 0.20999999999999996
356.352 0.24666999999999994
356.663 0.21334000000000009
356.973 0.2200000000000002
357.284 0.22999999999999998
357.593 0.21667000000000014
357.905 0.19334000000000007
358.216 0.21667000000000014
358.525 0.20999999999999996
358.836 0.21334000000000009
359.147 0.2400000000000002
359.457 0.2200000000000002
359.768 0.22666999999999993
360.077 0.20999999999999996
360.388 0.20333999999999985
360.699 0.22999999999999998
361.008 0.2533400000000001
361.32 0.2200000000000002
361.629 0.2333400000000001
361.94 0.18999999999999995
362.251 0.21667000000000014
362.56 0.27
362.871 0.27
363.18 0.2433399999999999
363.491 0.20333999999999985
363.8 0.20000000000000018
364.111 0.22666999999999993
364.422 0.22666999999999993
364.731 0.2200000000000002
365.042 0.21667000000000014
365.351 0.2066699999999999
365.662 0.1866699999999999
365.971 0.2066699999999999
366.282 0.20999999999999996
366.593 0.2200000000000002
366.902 0.26000000000000023
367.213 0.20999999999999996
367.522 0.20999999999999996
367.833 0.20999999999999996
368.142 0.2433399999999999
368.453 0.2333400000000001
368.762 0.21334000000000009
369.073 0.2633399999999999
369.381 0.21334000000000009
369.692 0.21334000000000009
370.001 0.20000000000000018
370.312 0.2066699999999999
370.623 0.22333999999999987
370.932 0.22333999999999987
371.242 0.24666999999999994
371.551 0.23667000000000016
371.862 0.23667000000000016
372.171 0.25
372.482 0.21334000000000009
372.79 0.22333999999999987
373.101 0.20999999999999996
373.41 0.2433399999999999
373.721 0.22999999999999998
374.029 0.23667000000000016
374.34 0.18999999999999995
374.649 0.2066699999999999
374.959 0.20999999999999996
375.268 0.22999999999999998
375.577 0.26666999999999996
375.887 0.2400000000000002
376.196 0.22666999999999993
376.506 0.2200000000000002
376.815 0.20333999999999985
377.126 0.19667000000000012
377.434 0.21334000000000009
377.745 0.26666999999999996
378.053 0.2433399999999999
378.364 0.18000000000000016
378.672 0.23667000000000016
378.983 0.2200000000000002
379.292 0.22666999999999993
379.6 0.24666999999999994
379.911 0.20000000000000018
380.219 0.19667000000000012
380.53 0.18334000000000028
380.838 0.2400000000000002
381.148 0.23667000000000016
381.457 0.20000000000000018
381.767 0.2066699999999999
382.076 0.22999999999999998
382.384 0.2066699999999999
382.695 0.2566700000000002
383.003 0.21667000000000014
383.313 0.21667000000000014
383.622 0.2066699999999999
383.93 0.21334000000000009
384.24 0.22666999999999993
384.549 0.22999999999999998
384.859 0.22333999999999987
385.167 0.22666999999999993
385.476 0.22666999999999993
385.786 0.23667000000000016
386.094 0.2400000000000002
386.405 0.2433399999999999
386.713 0.2333400000000001
387.021 0.2200000000000002
387.331 0.22999999999999998
387.64 0.2066699999999999
387.948 0.2333400000000001
388.258 0.22333999999999987
388.566 0.2400000000000002
388.877 0.25
389.185 0.2633399999999999
389.493 0.18334000000000028
389.803 0.23667000000000016
390.111 0.22999999999999998
390.419 0.2566700000000002
390.729 0.19667000000000012
391.038 0.2566700000000002
391.346 0.24666999999999994
391.656 0.26666999999999996
391.964 0.26000000000000023
392.272 0.2433399999999999
392.582 0.2066699999999999
392.89 0.28334000000000037
393.198 0.2400000000000002
393.508 0.2533400000000001
393.816 0.2566700000000002
394.124 0.21334000000000009
394.434 0.2333400000000001
394.742 0.2566700000000002
395.05 0.22999999999999998
395.36 0.23667000000000016
395.668 0.2633399999999999
395.976 0.26000000000000023
396.286 0.22333999999999987
396.594 0.2433399999999999
396.902 0.22666999999999993
397.21 0.26666999999999996
397.52 0.22999999999999998
397.828 0.2633399999999999
398.135 0.25
398.445 0.19667000000000012
398.753 0.27666999999999975
399.061 0.2333400000000001
399.369 0.22999999999999998
399.679 0.2433399999999999
399.987 0.27
400.294 0.2400000000000002
400.604 0.2400000000000002
400.912 0.2733399999999997
401.22 0.25
401.527 0.2633399999999999
401.837 0.22333999999999987
402.145 0.2433399999999999
402.453 0.26000000000000023
402.76 0.2566700000000002
403.07 0.25
403.378 0.2633399999999999
403.686 0.2400000000000002
403.993 0.26666999999999996
404.303 0.2400000000000002
404.611 0.2566700000000002
404.918 0.2866700000000004
405.226 0.22333999999999987
405.533 0.2533400000000001
405.843 0.2966700000000002
406.151 0.31000000000000005
406.458 0.2533400000000001
406.766 0.2900000000000005
407.076 0.2633399999999999
407.383 0.28334000000000037
407.691 0.31999999999999984
407.998 0.30000000000000027
408.306 0.30000000000000027
408.615 0.2900000000000005
408.923 0.2566700000000002
409.23 0.31333999999999973
409.538 0.29334000000000016
409.845 0.2900000000000005
410.153 0.2966700000000002
410.462 0.27666999999999975
410.77 0.2900000000000005
411.077 0.2900000000000005
411.384 0.3166699999999998
411.692 0.28334000000000037
412.001 0.31999999999999984
412.309 0.30000000000000027
412.616 0.31999999999999984
412.923 0.3599999999999999
413.231 0.3299999999999996
413.538 0.3400000000000003
413.845 0.3233400000000004
414.155 0.36999999999999966
414.462 0.36334000000000044
414.769 0.4033400000000005
415.077 0.41334000000000026
415.384 0.40666999999999964
415.691 0.4099999999999997
415.999 0.43333999999999984
416.308 0.4166700000000003
416.615 0.43333999999999984
416.922 0.48999999999999977
417.23 0.4633400000000001
417.537 0.5100000000000002
417.844 0.48333999999999966
418.151 0.5133399999999999
418.458 0.49334000000000033
418.768 0.5766700000000005
419.075 0.6066699999999998
419.382 0.6066699999999998
419.689 0.6300000000000003
419.996 0.6700000000000004
420.303 0.6800000000000002
420.61 0.73
420.918 0.77
421.225 0.73
421.532 0.8233400000000004
421.841 0.8133399999999997
422.148 0.8599999999999999
422.455 0.8233400000000004
422.762 0.9066699999999996
423.069 0.8966699999999999
423.376 0.8699999999999997
423.683 0.9366699999999999
423.99 0.9566700000000004
424.297 0.9633400000000001
424.604 0.8699999999999997
424.911 0.9466699999999997
425.218 0.9633400000000001
425.525 0.9499999999999997
425.832 0.9466699999999997
426.139 0.9466699999999997
426.446 0.8966699999999999
426.753 0.9133400000000003
427.061 0.9066699999999996
427.368 0.8866700000000001
427.675 0.8733400000000002
427.982 0.8000000000000003
428.289 0.8633400000000004
428.596 0.77
428.903 0.7200000000000002
429.209 0.6966699999999997
429.516 0.7166700000000001
429.823 0.7266699999999999
430.13 0.6666700000000003
430.437 0.6266700000000003
430.743 0.6633400000000003
431.05 0.6000000000000001
431.357 0.48999999999999977
431.664 0.56
431.97 0.5233399999999997
432.277 0.56
432.584 0.48
432.891 0.5033400000000001
433.197 0.5233399999999997
433.504 0.46667000000000014
433.811 0.48
434.117 0.4700000000000002
434.424 0.4633400000000001
434.731 0.4166700000000003
435.037 0.4766699999999999
435.344 0.38000000000000034
435.65 0.4099999999999997
435.957 0.4266700000000001
436.262 0.4366699999999999
436.568 0.4033400000000005
436.875 0.38667000000000007
437.181 0.3599999999999999
437.488 0.3500000000000001
437.794 0.38334
438.101 0.3233400000000004
438.407 0.35333999999999977
438.714 0.3500000000000001
439.02 0.3666700000000005
439.327 0.3599999999999999
439.633 0.3599999999999999
439.94 0.38667000000000007
440.246 0.3599999999999999
440.553 0.31999999999999984
440.859 0.3400000000000003
441.163 0.3299999999999996
441.47 0.34334
441.776 0.31999999999999984
442.083 0.34334
442.389 0.31999999999999984
442.695 0.2900000000000005
443.002 0.3299999999999996
443.308 0.34334
443.614 0.3299999999999996
443.921 0.30333999999999994
444.225 0.34334
444.531 0.33667000000000025
444.838 0.31333999999999973
445.144 0.3766700000000003
445.45 0.31000000000000005
445.757 0.3166699999999998
446.063 0.2900000000000005
446.369 0.2866700000000004
446.675 0.31999999999999984
446.979 0.32667000000000046
447.286 0.3400000000000003
447.592 0.31333999999999973
447.898 0.36334000000000044
448.204 0.32667000000000046
448.51 0.3566699999999998
448.817 0.34334
449.121 0.31999999999999984
449.427 0.31999999999999984
449.733 0.2966700000000002
450.039 0.3166699999999998
450.345 0.32667000000000046
450.651 0.31333999999999973
450.955 0.34334
451.261 0.3299999999999996
451.568 0.30667
451.874 0.3766700000000003
452.18 0.34667000000000003
452.486 0.3599999999999999
452.79 0.31000000000000005
453.096 0.34334
453.402 0.33667000000000025
453.708 0.31000000000000005
454.014 0.3333400000000002
454.318 0.34334
454.624 0.3333400000000002
454.93 0.32667000000000046
455.236 0.31000000000000005
455.541 0.30333999999999994
455.845 0.3500000000000001
456.151 0.29334000000000016
456.457 0.2799999999999998
456.763 0.3233400000000004
457.067 0.2966700000000002
457.373 0.3166699999999998
457.679 0.32667000000000046
457.985 0.2733399999999997
458.29 0.2866700000000004
458.594 0.2433399999999999
458.9 0.26666999999999996
459.206 0.2333400000000001
459.512 0.30333999999999994
459.815 0.27666999999999975
460.121 0.2433399999999999
460.427 0.32667000000000046
460.733 0.30667
461.036 0.28334000000000037
461.342 0.2866700000000004
461.648 0.2866700000000004
461.954 0.2966700000000002
462.257 0.26000000000000023
462.563 0.28334000000000037
462.869 0.23667000000000016
463.172 0.22999999999999998
463.478 0.3166699999999998
463.784 0.31000000000000005
464.089 0.26666999999999996
464.393 0.2799999999999998
464.699 0.2566700000000002
465.004 0.29334000000000016
465.308 0.25
465.613 0.2633399999999999
465.919 0.27666999999999975
466.225 0.2900000000000005
466.528 0.29334000000000016
466.834 0.2633399999999999
467.139 0.28334000000000037
467.443 0.2733399999999997
467.748 0.27666999999999975
468.054 0.2733399999999997
468.357 0.2733399999999997
468.663 0.2900000000000005
468.968 0.2533400000000001
469.272 0.2733399999999997
469.577 0.2866700000000004
469.883 0.2866700000000004
470.186 0.26000000000000023
470.492 0.28334000000000037
470.797 0.2900000000000005
471.1 0.24666999999999994
471.406 0.3599999999999999
471.711 0.26666999999999996
472.014 0.2566700000000002
472.32 0.2966700000000002
472.625 0.31333999999999973
472.929 0.2799999999999998
473.234 0.31333999999999973
473.539 0.30333999999999994
473.843 0.3333400000000002
474.148 0.2900000000000005
474.451 0.31333999999999973
474.756 0.2966700000000002
475.062 0.3166699999999998
475.365 0.3666700000000005
475.67 0.31333999999999973
475.973 0.33667000000000025
476.279 0.3666700000000005
476.584 0.3733400000000002
476.887 0.35333999999999977
477.192 0.38667000000000007
477.498 0.3599999999999999
477.801 0.41334000000000026
478.106 0.4700000000000002
478.409 0.46667000000000014
478.714 0.6233400000000002
479.017 0.6433399999999998
479.322 0.6433399999999998
479.628 0.6866699999999999
479.931 0.6800000000000002
480.236 0.6800000000000002
480.539 0.6766700000000001
480.844 0.6800000000000002
481.147 0.6166700000000005
481.452 0.6766700000000001
481.757 0.7233399999999999
482.06 0.7200000000000002
482.365 0.7233399999999999
482.668 0.6466699999999999
482.973 0.6999999999999997
483.276 0.6633400000000003
483.581 0.6700000000000004
483.884 0.6599999999999997
484.189 0.5866700000000002
484.494 0.5866700000000002
484.797 0.5133399999999999
485.102 0.4466699999999997
485.405 0.38667000000000007
485.71 0.45667000000000035
486.013 0.4033400000000005
486.318 0.36334000000000044
486.621 0.3900000000000001
486.925 0.33667000000000025
487.228 0.3500000000000001
487.533 0.31333999999999973
487.836 0.31333999999999973
488.141 0.34667000000000003
488.444 0.3299999999999996
488.748 0.24666999999999994
489.051 0.2633399999999999
489.356 0.3166699999999998
489.659 0.34667000000000003
489.964 0.30333999999999994
490.266 0.2900000000000005
490.571 0.30000000000000027
490.874 0.2866700000000004
491.179 0.30000000000000027
491.481 0.2966700000000002
491.786 0.30667
492.089 0.27
492.393 0.2400000000000002
492.696 0.23667000000000016
493.001 0.2400000000000002
493.303 0.2866700000000004
493.606 0.2333400000000001
493.911 0.26666999999999996
494.213 0.2633399999999999
494.518 0.27666999999999975
494.821 0.25
495.125 0.2566700000000002
495.428 0.24666999999999994
495.732 0.2533400000000001
496.035 0.2733399999999997
496.337 0.22999999999999998
496.642 0.27
496.945 0.2433399999999999
497.249 0.2333400000000001
497.552 0.22666999999999993
497.856 0.26666999999999996
498.159 0.2566700000000002
498.461 0.2533400000000001
498.766 0.26000000000000023
499.068 0.2566700000000002
499.372 0.25
499.675 0.26666999999999996
499.977 0.27
500.282 0.2200000000000002
500.584 0.2799999999999998
500.889 0.2799999999999998
501.191 0.2066699999999999
501.493 0.2533400000000001
501.798 0.20999999999999996
502.1 0.2433399999999999
502.402 0.2433399999999999
502.707 0.2533400000000001
503.009 0.2566700000000002
503.314 0.2400000000000002
503.616 0.2400000000000002
503.918 0.27
504.222 0.26000000000000023
504.525 0.20333999999999985
504.827 0.23667000000000016
505.131 0.23667000000000016
505.433 0.22333999999999987
505.736 0.20333999999999985
506.04 0.24666999999999994
506.342 0.2400000000000002
506.646 0.2433399999999999
506.949 0.20333999999999985
507.251 0.2200000000000002
507.555 0.23667000000000016
507.857 0.26666999999999996
508.159 0.21667000000000014
508.461 0.2733399999999997
508.766 0.2533400000000001
509.068 0.20000000000000018
509.37 0.22666999999999993
509.674 0.20333999999999985
509.976 0.22666999999999993
510.278 0.2333400000000001
510.582 0.25
510.884 0.22666999999999993
511.186 0.2433399999999999
511.49 0.22333999999999987
511.792 0.25
512.094 0.26000000000000023
512.396 0.21667000000000014
512.701 0.20999999999999996
513.003 0.20999999999999996
513.305 0.21334000000000009
513.609 0.20999999999999996
513.91 0.2400000000000002
514.212 0.21334000000000009
514.514 0.25
514.818 0.20999999999999996
515.12 0.2633399999999999
515.422 0.22666999999999993
515.724 0.18999999999999995
516.028 0.26000000000000023
516.33 0.20000000000000018
516.632 0.2799999999999998
516.934 0.22333999999999987
517.237 0.26666999999999996
517.539 0.25
517.841 0.22999999999999998
518.143 0.21667000000000014
518.447 0.2333400000000001
518.749 0.2799999999999998
519.05 0.26666999999999996
519.352 0.2799999999999998
519.656 0.20999999999999996
519.958 0.2566700000000002
520.26 0.2566700000000002
520.561 0.26666999999999996
520.863 0.2333400000000001
521.167 0.21667000000000014
521.468 0.25
521.77 0.20999999999999996
522.072 0.2566700000000002
522.376 0.25
522.677 0.2433399999999999
522.979 0.2566700000000002
523.281 0.29334000000000016
523.582 0.26000000000000023
523.884 0.27
524.187 0.2400000000000002
524.489 0.2866700000000004
524.791 0.2966700000000002
525.092 0.2866700000000004
525.394 0.2533400000000001
525.697 0.2433399999999999
525.999 0.2633399999999999
526.301 0.27666999999999975
526.602 0.25
526.904 0.25
527.205 0.23667000000000016
527.507 0.28334000000000037
527.81 0.2633399999999999
528.112 0.26666999999999996
528.413 0.2400000000000002
528.715 0.2799999999999998
529.016 0.22666999999999993
529.318 0.19334000000000007
529.619 0.26666999999999996
529.922 0.2533400000000001
530.224 0.26000000000000023
530.525 0.2900000000000005
530.827 0.2333400000000001
531.128 0.25
531.429 0.23667000000000016
531.731 0.23667000000000016
532.032 0.2433399999999999
532.336 0.27666999999999975
532.637 0.2566700000000002
532.938 0.22333999999999987
533.24 0.27
533.541 0.22999999999999998
533.842 0.2533400000000001
534.143 0.2400000000000002
534.445 0.2633399999999999
534.746 0.24666999999999994
535.047 0.22999999999999998
535.351 0.2333400000000001
535.652 0.22666999999999993
535.953 0.25
536.254 0.2566700000000002
536.555 0.23667000000000016
536.857 0.26000000000000023
537.158 0.2533400000000001
537.459 0.26000000000000023
537.76 0.2400000000000002
538.061 0.27666999999999975
538.362 0.27666999999999975
538.664 0.29334000000000016
538.965 0.27666999999999975
539.266 0.25
539.567 0.21667000000000014
539.868 0.27
540.169 0.26000000000000023
540.472 0.26666999999999996
540.773 0.2533400000000001
541.074 0.2866700000000004
541.375 0.2533400000000001
541.677 0.22999999999999998
541.978 0.22333999999999987
542.279 0.22333999999999987
542.58 0.2799999999999998
542.881 0.2533400000000001
543.182 0.2533400000000001
543.483 0.2333400000000001
543.784 0.20999999999999996
544.085 0.2799999999999998
544.385 0.26666999999999996
544.686 0.27666999999999975
544.987 0.26666999999999996
545.288 0.2566700000000002
545.589 0.25
545.89 0.23667000000000016
546.191 0.2533400000000001
546.492 0.2900000000000005
546.793 0.21667000000000014
547.094 0.2866700000000004
547.394 0.2633399999999999
547.695 0.3166699999999998
547.996 0.2633399999999999
548.297 0.24666999999999994
548.596 0.30000000000000027
548.897 0.2966700000000002
549.197 0.2966700000000002
549.498 0.2866700000000004
549.799 0.2799999999999998
550.1 0.30000000000000027
550.4 0.32667000000000046
550.701 0.2799999999999998
551.002 0.29334000000000016
551.303 0.3333400000000002
551.603 0.3566699999999998
551.904 0.3333400000000002
552.205 0.3400000000000003
552.505 0.31000000000000005
552.806 0.3766700000000003
553.107 0.36999999999999966
553.407 0.41334000000000026
553.706 0.3900000000000001
554.007 0.40666999999999964
554.307 0.3900000000000001
554.608 0.45667000000000035
554.909 0.44999999999999973
555.209 0.43999999999999995
555.51 0.46667000000000014
555.81 0.3999999999999999
556.111 0.4433400000000005
556.411 0.42334000000000005
556.71 0.45667000000000035
557.01 0.4600000000000004
557.311 0.43333999999999984
557.612 0.3999999999999999
557.912 0.4200000000000004
558.213 0.34667000000000003
558.513 0.44999999999999973
558.813 0.3900000000000001
559.112 0.42334000000000005
559.412 0.4099999999999997
559.713 0.36334000000000044
560.013 0.36999999999999966
560.314 0.35333999999999977
560.614 0.3400000000000003
560.914 0.36334000000000044
561.213 0.31000000000000005
561.513 0.34334
561.814 0.29334000000000016
562.114 0.30333999999999994
562.414 0.31333999999999973
562.715 0.30333999999999994
563.015 0.3299999999999996
563.313 0.2966700000000002
563.614 0.30333999999999994
563.914 0.2566700000000002
564.214 0.2900000000000005
564.515 0.3233400000000004
564.813 0.26666999999999996
565.113 0.26000000000000023
565.413 0.24666999999999994
565.714 0.2966700000000002
566.014 0.27666999999999975
566.312 0.26666999999999996
566.612 0.30667
566.912 0.26666999999999996
567.213 0.2866700000000004
567.513 0.2333400000000001
567.811 0.27666999999999975
568.111 0.2900000000000005
568.411 0.2633399999999999
568.712 0.2799999999999998
569.012 0.2533400000000001
569.31 0.2966700000000002
569.61 0.2733399999999997
569.91 0.2799999999999998
570.21 0.28334000000000037
570.508 0.26000000000000023
570.808 0.22999999999999998
571.108 0.26666999999999996
571.408 0.2799999999999998
571.706 0.2633399999999999
572.006 0.2566700000000002
572.306 0.30333999999999994
572.607 0.2733399999999997
572.904 0.2900000000000005
573.204 0.2566700000000002
573.505 0.23667000000000016
573.805 0.28334000000000037
574.102 0.2566700000000002
574.402 0.22333999999999987
574.702 0.23667000000000016
575.002 0.2799999999999998
575.3 0.29334000000000016
575.6 0.26000000000000023
575.9 0.24666999999999994
576.198 0.28334000000000037
576.498 0.24666999999999994
576.798 0.21334000000000009
577.098 0.26666999999999996
577.395 0.24666999999999994
577.695 0.24666999999999994
577.995 0.25
578.293 0.2533400000000001
578.593 0.25
578.893 0.2900000000000005
579.19 0.22666999999999993
579.49 0.2433399999999999
579.79 0.21667000000000014
580.088 0.2533400000000001
580.387 0.26000000000000023
580.687 0.23667000000000016
580.985 0.25
581.285 0.25
581.584 0.25
581.882 0.22666999999999993
582.182 0.26000000000000023
582.482 0.2900000000000005
582.779 0.22666999999999993
583.079 0.2733399999999997
583.378 0.22666999999999993
583.676 0.2633399999999999
583.976 0.22999999999999998
584.275 0.26666999999999996
584.573 0.22999999999999998
584.873 0.21667000000000014
585.17 0.25
585.47 0.26000000000000023
585.769 0.2400000000000002
586.067 0.2333400000000001
586.367 0.2533400000000001
586.666 0.2433399999999999
586.964 0.26666999999999996
587.263 0.2799999999999998
587.561 0.27666999999999975
587.86 0.22666999999999993
588.16 0.2566700000000002
588.457 0.2566700000000002
588.757 0.26666999999999996
589.054 0.2400000000000002
589.354 0.29334000000000016
589.653 0.26000000000000023
589.951 0.2633399999999999
590.25 0.2866700000000004
590.547 0.21667000000000014
590.847 0.2799999999999998
591.144 0.20999999999999996
591.444 0.22333999999999987
591.743 0.2733399999999997
592.04 0.2333400000000001
592.34 0.2533400000000001
592.637 0.23667000000000016
592.936 0.2566700000000002
593.234 0.28334000000000037
593.533 0.2400000000000002
593.832 0.30333999999999994
594.13 0.23667000000000016
594.429 0.25
594.726 0.2200000000000002
595.026 0.2566700000000002
595.323 0.27
595.622 0.2533400000000001
595.919 0.2333400000000001
596.219 0.27
596.516 0.26000000000000023
596.815 0.2733399999999997
597.112 0.27
597.411 0.2533400000000001
597.709 0.2433399999999999
598.008 0.26666999999999996
598.305 0.2533400000000001
598.604 0.2566700000000002
598.901 0.2566700000000002
599.2 0.27
599.497 0.27
599.797 0.25
600.094 0.2433399999999999
600.393 0.30667
600.69 0.2566700000000002
600.989 0.21667000000000014
601.286 0.26000000000000023
601.585 0.2866700000000004
601.882 0.2533400000000001
602.181 0.27
602.478 0.29334000000000016
602.777 0.2733399999999997
603.074 0.2733399999999997
603.373 0.2566700000000002
603.67 0.2799999999999998
603.969 0.22666999999999993
604.266 0.22666999999999993
604.563 0.27
604.862 0.2966700000000002
605.159 0.28334000000000037
605.458 0.30000000000000027
605.755 0.30000000000000027
606.054 0.2866700000000004
606.351 0.26666999999999996
606.65 0.29334000000000016
606.946 0.2866700000000004
607.243 0.25
607.542 0.30667
607.839 0.29334000000000016
608.138 0.27666999999999975
608.435 0.27
608.732 0.3233400000000004
609.03 0.31333999999999973
609.327 0.30333999999999994
609.626 0.33667000000000025
609.923 0.3299999999999996
610.22 0.3233400000000004
610.518 0.32667000000000046
610.815 0.3400000000000003
611.114 0.3299999999999996
611.411 0.3766700000000003
611.707 0.2900000000000005
612.006 0.34334
612.303 0.3666700000000005
612.601 0.33667000000000025
612.898 0.3500000000000001
613.195 0.38667000000000007
613.493 0.3599999999999999
613.79 0.3900000000000001
614.087 0.3566699999999998
614.385 0.3166699999999998
614.682 0.3299999999999996
614.979 0.3733400000000002
615.277 0.3599999999999999
615.574 0.3299999999999996
615.87 0.3666700000000005
616.169 0.3666700000000005
616.466 0.3666700000000005
616.764 0.31000000000000005
617.061 0.34667000000000003
617.357 0.34667000000000003
617.656 0.3400000000000003
617.952 0.2966700000000002
618.249 0.3233400000000004
618.545 0.2799999999999998
618.844 0.28334000000000037
619.14 0.32667000000000046
619.437 0.3166699999999998
619.735 0.26000000000000023
620.032 0.26666999999999996
620.328 0.30333999999999994
620.626 0.2966700000000002
620.923 0.3299999999999996
621.219 0.2900000000000005
621.518 0.27
621.814 0.2333400000000001
622.11 0.27
622.407 0.23667000000000016
622.705 0.27
623.002 0.25
623.298 0.27666999999999975
623.594 0.2066699999999999
623.893 0.2433399999999999
624.189 0.2566700000000002
624.485 0.31000000000000005
624.784 0.24666999999999994
625.08 0.2799999999999998
625.376 0.30667
625.672 0.2433399999999999
625.971 0.2533400000000001
626.267 0.28334000000000037
626.563 0.2733399999999997
626.859 0.3299999999999996
627.158 0.2866700000000004
627.454 0.26666999999999996
627.75 0.24666999999999994
628.046 0.2533400000000001
628.342 0.2066699999999999
628.641 0.2900000000000005
628.937 0.2633399999999999
629.233 0.26000000000000023
629.529 0.2866700000000004
629.827 0.28334000000000037
630.123 0.24666999999999994
630.419 0.30333999999999994
630.715 0.2533400000000001
631.011 0.2799999999999998
631.31 0.30333999999999994
631.606 0.28334000000000037
631.902 0.2733399999999997
632.198 0.3233400000000004
632.494 0.31000000000000005
632.792 0.27
633.088 0.26666999999999996
633.384 0.2799999999999998
633.68 0.2866700000000004
633.976 0.2333400000000001
634.272 0.2733399999999997
634.57 0.2799999999999998
634.866 0.26000000000000023
635.162 0.2633399999999999
635.458 0.26000000000000023
635.754 0.25
636.05 0.2200000000000002
636.347 0.2900000000000005
636.643 0.28334000000000037
636.939 0.30000000000000027
637.235 0.25
637.531 0.27
637.827 0.2533400000000001
638.123 0.26000000000000023
638.421 0.23667000000000016
638.716 0.28334000000000037
639.012 0.2533400000000001
639.308 0.27666999999999975
639.604 0.2566700000000002
639.9 0.27
640.195 0.30000000000000027
640.491 0.26666999999999996
640.789 0.26666999999999996
641.085 0.25
641.381 0.27
641.676 0.2566700000000002
641.972 0.24666999999999994
642.268 0.2799999999999998
642.563 0.2866700000000004
642.859 0.24666999999999994
643.155 0.27
643.451 0.27
643.746 0.2566700000000002
644.044 0.25
644.34 0.30000000000000027
644.635 0.27666999999999975
644.931 0.2566700000000002
645.227 0.27666999999999975
645.522 0.2433399999999999
645.818 0.2733399999999997
646.113 0.2633399999999999
646.409 0.2566700000000002
646.704 0.2866700000000004
647.0 0.2799999999999998
647.296 0.30333999999999994
647.591 0.30000000000000027
647.887 0.2533400000000001
648.182 0.28334000000000037
648.478 0.2900000000000005
648.773 0.29334000000000016
649.069 0.26666999999999996
649.366 0.2733399999999997
649.662 0.27
649.957 0.2633399999999999
650.253 0.26000000000000023
650.548 0.28334000000000037
650.844 0.2866700000000004
651.139 0.2866700000000004
651.434 0.2966700000000002
651.73 0.27
652.025 0.3299999999999996
652.321 0.30000000000000027
652.616 0.30333999999999994
652.911 0.3333400000000002
653.207 0.31333999999999973
653.502 0.2799999999999998
653.797 0.30667
654.093 0.30000000000000027
654.388 0.3400000000000003
654.683 0.2866700000000004
654.979 0.3333400000000002
655.274 0.30333999999999994
655.567 0.35333999999999977
655.863 0.35333999999999977
656.158 0.35333999999999977
656.453 0.39666999999999986
656.748 0.38334
657.044 0.3766700000000003
657.339 0.41334000000000026
657.634 0.4533400000000003
657.929 0.40666999999999964
658.224 0.4033400000000005
658.52 0.43333999999999984
658.815 0.4766699999999999
659.11 0.43999999999999995
659.405 0.49334000000000033
659.7 0.5033400000000001
659.995 0.4766699999999999
660.291 0.46667000000000014
660.586 0.5299999999999998
660.879 0.52
661.174 0.5299999999999998
661.469 0.5333400000000004
661.764 0.5299999999999998
662.059 0.52
662.354 0.5299999999999998
662.649 0.5266699999999997
662.944 0.5333400000000004
663.239 0.48999999999999977
663.534 0.5400000000000005
663.83 0.5100000000000002
664.122 0.4366699999999999
664.417 0.49334000000000033
664.713 0.48
665.008 0.4700000000000002
665.302 0.43999999999999995
665.597 0.4766699999999999
665.892 0.42334000000000005
666.187 0.43000000000000016
666.48 0.44999999999999973
666.775 0.3933399999999998
667.07 0.36334000000000044
667.365 0.4266700000000001
667.66 0.38334
667.955 0.3999999999999999
668.25 0.38334
668.542 0.38667000000000007
668.837 0.38334
669.132 0.30333999999999994
669.427 0.3500000000000001
669.722 0.33667000000000025
670.017 0.3233400000000004
670.31 0.33667000000000025
670.604 0.2966700000000002
670.899 0.3599999999999999
671.194 0.31000000000000005
671.489 0.2966700000000002
671.783 0.2966700000000002
672.076 0.2900000000000005
672.371 0.31333999999999973
672.666 0.25
672.96 0.34334
673.255 0.26000000000000023
673.548 0.3166699999999998
673.842 0.2966700000000002
674.137 0.30000000000000027
674.432 0.27
674.727 0.30000000000000027
675.019 0.26000000000000023
675.314 0.2566700000000002
675.608 0.22333999999999987
675.903 0.28334000000000037
676.196 0.2900000000000005
676.49 0.31333999999999973
676.785 0.27666999999999975
677.079 0.27
677.374 0.26000000000000023
677.667 0.29334000000000016
677.961 0.28334000000000037
678.256 0.2433399999999999
678.55 0.26000000000000023
678.843 0.22999999999999998
679.137 0.21334000000000009
679.432 0.2533400000000001
679.726 0.2900000000000005
680.019 0.2400000000000002
680.313 0.2433399999999999
680.608 0.2866700000000004
680.902 0.26000000000000023
681.195 0.30667
681.489 0.26000000000000023
681.784 0.28334000000000037
682.076 0.2799999999999998
682.37 0.26000000000000023
682.665 0.24666999999999994
682.959 0.23667000000000016
683.252 0.2733399999999997
683.546 0.22999999999999998
683.84 0.24666999999999994
684.133 0.2866700000000004
684.427 0.2633399999999999
684.721 0.2533400000000001
685.014 0.20999999999999996
685.308 0.2566700000000002
685.602 0.2799999999999998
685.895 0.2966700000000002
686.189 0.27
686.483 0.27666999999999975
686.778 0.26666999999999996
687.07 0.26666999999999996
687.364 0.2799999999999998
687.658 0.25
687.951 0.2633399999999999
688.245 0.25
688.537 0.2400000000000002
688.831 0.27
689.125 0.2400000000000002
689.418 0.23667000000000016
689.712 0.2966700000000002
690.006 0.24666999999999994
690.298 0.27
690.592 0.24666999999999994
690.886 0.30000000000000027
691.178 0.3166699999999998
691.473 0.30667
691.767 0.30000000000000027
692.059 0.2733399999999997
692.353 0.26666999999999996
692.645 0.2433399999999999
692.939 0.2533400000000001
693.233 0.26000000000000023
693.525 0.26666999999999996
693.819 0.26666999999999996
694.111 0.2433399999999999
694.405 0.26666999999999996
694.699 0.30333999999999994
694.991 0.2400000000000002
695.285 0.2533400000000001
695.577 0.2799999999999998
695.871 0.27666999999999975
696.165 0.2433399999999999
696.457 0.2433399999999999
696.751 0.26666999999999996
697.043 0.23667000000000016
697.337 0.2533400000000001
697.629 0.2799999999999998
697.923 0.2533400000000001
698.217 0.25
698.509 0.26000000000000023
698.802 0.2433399999999999
699.094 0.2566700000000002
699.388 0.26666999999999996
699.68 0.2799999999999998
699.974 0.26000000000000023
700.266 0.2633399999999999
700.56 0.24666999999999994
700.853 0.25
701.145 0.26000000000000023
701.439 0.2533400000000001
701.731 0.2433399999999999
702.025 0.23667000000000016
702.316 0.25
702.61 0.2633399999999999
702.902 0.22666999999999993
703.196 0.23667000000000016
703.487 0.2533400000000001
703.781 0.2900000000000005
704.073 0.30000000000000027
704.367 0.21667000000000014
704.658 0.26000000000000023
704.952 0.2799999999999998
705.244 0.2866700000000004
705.537 0.25
705.829 0.2200000000000002
706.122 0.2333400000000001
706.414 0.2733399999999997
706.708 0.26666999999999996
706.999 0.2433399999999999
707.293 0.2799999999999998
