# Created: 2019-11-28 13:05:40.453628
# rshift intensity
76.1738 0.1667000000000023
76.4989 0.18340000000000245
76.824 0.216700000000003
77.1491 0.20000000000000284
77.4721 0.216700000000003
77.7972 0.20000000000000284
78.1223 0.08340000000000103
78.4474 0.13340000000000174
78.7724 0.08340000000000103
79.0975 0.03340000000000032
79.4204 0.13340000000000174
79.7454 0.03340000000000032
80.0704 0.0
80.3954 0.08340000000000103
80.7204 0.13340000000000174
81.0454 0.11670000000000158
81.3682 0.11670000000000158
81.6931 0.10000000000000142
82.0181 0.0
82.343 0.1667000000000023
82.6679 0.08340000000000103
82.9907 0.13340000000000174
83.3156 0.1667000000000023
83.6405 0.11670000000000158
83.9654 0.06670000000000087
84.2903 0.10000000000000142
84.613 0.06670000000000087
84.9378 0.08340000000000103
85.2626 0.06670000000000087
85.5875 0.1667000000000023
85.9101 0.13340000000000174
86.2349 0.06670000000000087
86.5597 0.08340000000000103
86.8845 0.13340000000000174
87.2093 0.1667000000000023
87.5319 0.11670000000000158
87.8566 0.05000000000000071
88.1814 0.06670000000000087
88.5061 0.20000000000000284
88.8286 0.1667000000000023
89.1533 0.13340000000000174
89.478 0.13340000000000174
89.8027 0.1667000000000023
90.1252 0.05000000000000071
90.4499 0.05000000000000071
90.7745 0.18340000000000245
91.0992 0.11670000000000158
91.4216 0.15000000000000213
91.7462 0.08340000000000103
92.0708 0.05000000000000071
92.3954 0.06670000000000087
92.7179 0.08340000000000103
93.0424 0.1667000000000023
93.367 0.05000000000000071
93.6915 0.10000000000000142
94.0139 0.05000000000000071
94.3384 0.10000000000000142
94.6629 0.15000000000000213
94.9853 0.10000000000000142
95.3098 0.11670000000000158
95.6342 0.0
95.9587 0.05000000000000071
96.281 0.1667000000000023
96.6055 0.08340000000000103
96.9299 0.11670000000000158
97.2522 0.11670000000000158
97.5766 0.11670000000000158
97.901 0.11670000000000158
98.2232 0.13340000000000174
98.5476 0.13340000000000174
98.8719 0.08340000000000103
99.1942 0.11670000000000158
99.5185 0.18340000000000245
99.8428 0.08340000000000103
100.165 0.216700000000003
100.489 0.03340000000000032
100.814 0.06670000000000087
101.136 0.05000000000000071
101.46 0.08340000000000103
101.784 0.216700000000003
102.106 0.15000000000000213
102.431 0.08340000000000103
102.755 0.13340000000000174
103.077 0.20000000000000284
103.401 0.05000000000000071
103.725 0.10000000000000142
104.047 0.20000000000000284
104.372 0.15000000000000213
104.696 0.01670000000000016
105.018 0.18340000000000245
105.342 0.216700000000003
105.666 0.08340000000000103
105.988 0.11670000000000158
106.312 0.11670000000000158
106.634 0.18340000000000245
106.958 0.08340000000000103
107.282 0.05000000000000071
107.604 0.06670000000000087
107.928 0.08340000000000103
108.252 0.06670000000000087
108.574 0.18340000000000245
108.898 0.1667000000000023
109.22 0.08340000000000103
109.544 0.01670000000000016
109.868 0.11670000000000158
110.19 0.05000000000000071
110.514 0.10000000000000142
110.836 0.10000000000000142
111.159 0.13340000000000174
111.483 0.11670000000000158
111.805 0.13340000000000174
112.129 0.11670000000000158
112.451 0.11670000000000158
112.775 0.08340000000000103
113.096 0.11670000000000158
113.42 0.03340000000000032
113.744 0.13340000000000174
114.066 0.15000000000000213
114.39 0.13340000000000174
114.711 0.15000000000000213
115.035 0.08340000000000103
115.357 0.1667000000000023
115.681 0.05000000000000071
116.004 0.13340000000000174
116.326 0.06670000000000087
116.65 0.11670000000000158
116.971 0.11670000000000158
117.295 0.13340000000000174
117.617 0.15000000000000213
117.94 0.10000000000000142
118.262 0.03340000000000032
118.586 0.15000000000000213
118.907 0.0
119.231 0.23340000000000316
119.554 0.13340000000000174
119.876 0.11670000000000158
120.199 0.10000000000000142
120.521 0.10000000000000142
120.845 0.13340000000000174
121.166 0.06670000000000087
121.49 0.11670000000000158
121.811 0.08340000000000103
122.135 0.10000000000000142
122.456 0.20000000000000284
122.78 0.1667000000000023
123.101 0.11670000000000158
123.424 0.11670000000000158
123.746 0.13340000000000174
124.069 0.216700000000003
124.391 0.10000000000000142
124.714 0.08340000000000103
125.035 0.13340000000000174
125.359 0.11670000000000158
125.68 0.13340000000000174
126.004 0.10000000000000142
126.325 0.08340000000000103
126.648 0.08340000000000103
126.97 0.08340000000000103
127.291 0.15000000000000213
127.614 0.03340000000000032
127.935 0.10000000000000142
128.259 0.23340000000000316
128.58 0.18340000000000245
128.903 0.13340000000000174
129.224 0.20000000000000284
129.548 0.1667000000000023
129.869 0.11670000000000158
130.192 0.216700000000003
130.513 0.08340000000000103
130.834 0.1667000000000023
131.158 0.13340000000000174
131.479 0.25
131.802 0.15000000000000213
132.123 0.15000000000000213
132.446 0.06670000000000087
132.767 0.15000000000000213
133.09 0.05000000000000071
133.411 0.1667000000000023
133.733 0.11670000000000158
134.056 0.1667000000000023
134.377 0.11670000000000158
134.7 0.1667000000000023
135.021 0.15000000000000213
135.342 0.23340000000000316
135.665 0.01670000000000016
135.986 0.11670000000000158
136.309 0.10000000000000142
136.63 0.05000000000000071
136.951 0.18340000000000245
137.274 0.06670000000000087
137.595 0.20000000000000284
137.918 0.05000000000000071
138.238 0.10000000000000142
138.559 0.10000000000000142
138.882 0.13340000000000174
139.203 0.08340000000000103
139.526 0.13340000000000174
139.847 0.18340000000000245
140.168 0.10000000000000142
140.491 0.06670000000000087
140.811 0.11670000000000158
141.132 0.1667000000000023
141.455 0.08340000000000103
141.776 0.15000000000000213
142.097 0.10000000000000142
142.419 0.03340000000000032
142.74 0.06670000000000087
143.061 0.20000000000000284
143.384 0.1667000000000023
143.704 0.0
144.027 0.13340000000000174
144.348 0.25
144.668 0.11670000000000158
144.991 0.08340000000000103
145.312 0.06670000000000087
145.632 0.13340000000000174
145.955 0.08340000000000103
146.276 0.13340000000000174
146.596 0.10000000000000142
146.917 0.05000000000000071
147.24 0.11670000000000158
147.56 0.05000000000000071
147.881 0.11670000000000158
148.203 0.15000000000000213
148.524 0.23340000000000316
148.844 0.216700000000003
149.167 0.15000000000000213
149.487 0.18340000000000245
149.808 0.08340000000000103
150.131 0.15000000000000213
150.451 0.1667000000000023
150.771 0.08340000000000103
151.092 0.13340000000000174
151.414 0.10000000000000142
151.735 0.08340000000000103
152.055 0.06670000000000087
152.378 0.13340000000000174
152.698 0.1667000000000023
153.018 0.0
153.339 0.15000000000000213
153.661 0.15000000000000213
153.982 0.13340000000000174
154.302 0.216700000000003
154.622 0.06670000000000087
154.945 0.20000000000000284
155.265 0.216700000000003
155.585 0.05000000000000071
155.905 0.20000000000000284
156.228 0.20000000000000284
156.548 0.11670000000000158
156.868 0.11670000000000158
157.188 0.11670000000000158
157.511 0.15000000000000213
157.831 0.06670000000000087
158.151 0.23340000000000316
158.471 0.1667000000000023
158.794 0.11670000000000158
159.114 0.10000000000000142
159.434 0.10000000000000142
159.754 0.11670000000000158
160.074 0.11670000000000158
160.396 0.08340000000000103
160.717 0.18340000000000245
161.037 0.06670000000000087
161.357 0.20000000000000284
161.679 0.08340000000000103
161.999 0.18340000000000245
162.319 0.2834000000000003
162.639 0.1667000000000023
162.959 0.1667000000000023
163.281 0.18340000000000245
163.601 0.08340000000000103
163.921 0.13340000000000174
164.241 0.11670000000000158
164.561 0.3000000000000007
164.881 0.25
165.203 0.216700000000003
165.523 0.216700000000003
165.843 0.1667000000000023
166.163 0.13340000000000174
166.483 0.18340000000000245
166.803 0.1667000000000023
167.125 0.15000000000000213
167.445 0.08340000000000103
167.764 0.20000000000000284
168.084 0.11670000000000158
168.404 0.13340000000000174
168.724 0.1667000000000023
169.046 0.08340000000000103
169.366 0.18340000000000245
169.685 0.1667000000000023
170.005 0.216700000000003
170.325 0.10000000000000142
170.645 0.08340000000000103
170.964 0.1667000000000023
171.286 0.18340000000000245
171.606 0.26670000000000016
171.926 0.15000000000000213
172.245 0.11670000000000158
172.565 0.25
172.885 0.06670000000000087
173.204 0.20000000000000284
173.524 0.08340000000000103
173.846 0.1667000000000023
174.166 0.13340000000000174
174.485 0.15000000000000213
174.805 0.18340000000000245
175.124 0.18340000000000245
175.444 0.06670000000000087
175.764 0.15000000000000213
176.083 0.15000000000000213
176.403 0.10000000000000142
176.722 0.18340000000000245
177.044 0.06670000000000087
177.363 0.18340000000000245
177.683 0.11670000000000158
178.002 0.1667000000000023
178.322 0.05000000000000071
178.641 0.06670000000000087
178.961 0.06670000000000087
179.28 0.18340000000000245
179.6 0.26670000000000016
179.919 0.08340000000000103
180.239 0.13340000000000174
180.558 0.13340000000000174
180.877 0.08340000000000103
181.197 0.216700000000003
181.516 0.1667000000000023
181.838 0.11670000000000158
182.157 0.18340000000000245
182.476 0.15000000000000213
182.796 0.1667000000000023
183.115 0.13340000000000174
183.434 0.1667000000000023
183.754 0.13340000000000174
184.073 0.05000000000000071
184.392 0.216700000000003
184.712 0.18340000000000245
185.031 0.18340000000000245
185.35 0.11670000000000158
185.669 0.1667000000000023
185.989 0.06670000000000087
186.308 0.15000000000000213
186.627 0.20000000000000284
186.946 0.25
187.265 0.11670000000000158
187.585 0.18340000000000245
187.904 0.26670000000000016
188.223 0.20000000000000284
188.542 0.23340000000000316
188.861 0.08340000000000103
189.18 0.10000000000000142
189.499 0.11670000000000158
189.818 0.08340000000000103
190.138 0.11670000000000158
190.457 0.11670000000000158
190.776 0.08340000000000103
191.095 0.18340000000000245
191.414 0.08340000000000103
191.733 0.216700000000003
192.052 0.18340000000000245
192.371 0.20000000000000284
192.69 0.20000000000000284
193.009 0.1667000000000023
193.328 0.06670000000000087
193.647 0.08340000000000103
193.966 0.10000000000000142
194.285 0.23340000000000316
194.602 0.15000000000000213
194.92 0.08340000000000103
195.239 0.13340000000000174
195.558 0.23340000000000316
195.877 0.08340000000000103
196.196 0.1667000000000023
196.515 0.05000000000000071
196.834 0.03340000000000032
197.153 0.18340000000000245
197.471 0.15000000000000213
197.79 0.26670000000000016
198.109 0.08340000000000103
198.428 0.11670000000000158
198.747 0.216700000000003
199.065 0.03340000000000032
199.382 0.20000000000000284
199.701 0.1667000000000023
200.02 0.1667000000000023
200.338 0.23340000000000316
200.657 0.13340000000000174
200.976 0.1667000000000023
201.295 0.216700000000003
201.613 0.1667000000000023
201.932 0.18340000000000245
202.251 0.05000000000000071
202.567 0.20000000000000284
202.886 0.13340000000000174
203.204 0.20000000000000284
203.523 0.20000000000000284
203.842 0.11670000000000158
204.16 0.15000000000000213
204.479 0.20000000000000284
204.797 0.15000000000000213
205.114 0.15000000000000213
205.433 0.18340000000000245
205.751 0.13340000000000174
206.07 0.11670000000000158
206.388 0.13340000000000174
206.707 0.18340000000000245
207.025 0.13340000000000174
207.342 0.2834000000000003
207.66 0.20000000000000284
207.979 0.23340000000000316
208.297 0.13340000000000174
208.615 0.11670000000000158
208.934 0.216700000000003
209.25 0.06670000000000087
209.569 0.18340000000000245
209.887 0.20000000000000284
210.205 0.13340000000000174
210.524 0.1667000000000023
210.842 0.06670000000000087
211.158 0.2834000000000003
211.477 0.11670000000000158
211.795 0.216700000000003
212.113 0.23340000000000316
212.432 0.13340000000000174
212.75 0.25
213.066 0.1667000000000023
213.385 0.1667000000000023
213.703 0.10000000000000142
214.021 0.05000000000000071
214.339 0.20000000000000284
214.656 0.15000000000000213
214.974 0.216700000000003
215.292 0.25
215.61 0.20000000000000284
215.926 0.20000000000000284
216.245 0.15000000000000213
216.563 0.23340000000000316
216.881 0.18340000000000245
217.199 0.15000000000000213
217.515 0.1667000000000023
217.833 0.23340000000000316
218.151 0.25
218.469 0.1667000000000023
218.785 0.08340000000000103
219.104 0.10000000000000142
219.422 0.13340000000000174
219.74 0.1667000000000023
220.056 0.13340000000000174
220.374 0.13340000000000174
220.692 0.1667000000000023
221.01 0.13340000000000174
221.326 0.1667000000000023
221.644 0.20000000000000284
221.962 0.25
222.28 0.20000000000000284
222.596 0.11670000000000158
222.914 0.05000000000000071
223.232 0.10000000000000142
223.547 0.1667000000000023
223.865 0.2834000000000003
224.183 0.11670000000000158
224.501 0.13340000000000174
224.817 0.10000000000000142
225.135 0.11670000000000158
225.453 0.31670000000000087
225.768 0.11670000000000158
226.086 0.25
226.404 0.11670000000000158
226.722 0.18340000000000245
227.038 0.18340000000000245
227.355 0.11670000000000158
227.673 0.1667000000000023
227.989 0.15000000000000213
228.307 0.18340000000000245
228.625 0.3000000000000007
228.94 0.1667000000000023
229.258 0.26670000000000016
229.576 0.1667000000000023
229.891 0.31670000000000087
230.209 0.20000000000000284
230.527 0.26670000000000016
230.842 0.23340000000000316
231.16 0.25
231.478 0.216700000000003
231.793 0.13340000000000174
232.111 0.11670000000000158
232.428 0.18340000000000245
232.744 0.33340000000000103
233.062 0.31670000000000087
233.379 0.18340000000000245
233.695 0.15000000000000213
234.012 0.3000000000000007
234.33 0.18340000000000245
234.645 0.18340000000000245
234.963 0.13340000000000174
235.278 0.18340000000000245
235.596 0.20000000000000284
235.913 0.23340000000000316
236.229 0.25
236.546 0.13340000000000174
236.864 0.23340000000000316
237.179 0.20000000000000284
237.497 0.20000000000000284
237.812 0.20000000000000284
238.129 0.216700000000003
238.447 0.216700000000003
238.762 0.1667000000000023
239.08 0.10000000000000142
239.395 0.23340000000000316
239.712 0.216700000000003
240.03 0.25
240.345 0.216700000000003
240.662 0.20000000000000284
240.978 0.1667000000000023
241.295 0.18340000000000245
241.61 0.23340000000000316
241.927 0.1667000000000023
242.245 0.3000000000000007
242.56 0.2834000000000003
242.877 0.13340000000000174
243.192 0.3000000000000007
243.51 0.2834000000000003
243.825 0.216700000000003
244.142 0.23340000000000316
244.459 0.15000000000000213
244.774 0.15000000000000213
245.092 0.23340000000000316
245.407 0.2834000000000003
245.724 0.20000000000000284
246.039 0.11670000000000158
246.356 0.2834000000000003
246.671 0.20000000000000284
246.988 0.25
247.303 0.1667000000000023
247.62 0.26670000000000016
247.938 0.216700000000003
248.253 0.20000000000000284
248.57 0.3000000000000007
248.885 0.216700000000003
249.202 0.3000000000000007
249.517 0.1667000000000023
249.834 0.11670000000000158
250.149 0.2834000000000003
250.466 0.10000000000000142
250.781 0.15000000000000213
251.098 0.33340000000000103
251.412 0.1667000000000023
251.729 0.216700000000003
252.044 0.18340000000000245
252.361 0.15000000000000213
252.676 0.20000000000000284
252.993 0.03340000000000032
253.308 0.20000000000000284
253.625 0.26670000000000016
253.94 0.13340000000000174
254.256 0.10000000000000142
254.571 0.26670000000000016
254.888 0.10000000000000142
255.203 0.15000000000000213
255.518 0.26670000000000016
255.834 0.26670000000000016
256.149 0.26670000000000016
256.466 0.216700000000003
256.781 0.15000000000000213
257.097 0.13340000000000174
257.412 0.25
257.729 0.05000000000000071
258.044 0.1667000000000023
258.36 0.11670000000000158
258.675 0.05000000000000071
258.99 0.20000000000000284
259.306 0.11670000000000158
259.621 0.08340000000000103
259.938 0.18340000000000245
260.252 0.216700000000003
260.569 0.1667000000000023
260.883 0.26670000000000016
261.198 0.3000000000000007
261.515 0.15000000000000213
261.829 0.20000000000000284
262.146 0.15000000000000213
262.46 0.2834000000000003
262.775 0.26670000000000016
263.091 0.26670000000000016
263.406 0.216700000000003
263.723 0.13340000000000174
264.037 0.18340000000000245
264.354 0.26670000000000016
264.668 0.11670000000000158
264.982 0.20000000000000284
265.299 0.13340000000000174
265.613 0.20000000000000284
265.928 0.13340000000000174
266.244 0.13340000000000174
266.559 0.20000000000000284
266.875 0.3000000000000007
267.189 0.1667000000000023
267.504 0.26670000000000016
267.82 0.20000000000000284
268.134 0.11670000000000158
268.449 0.23340000000000316
268.765 0.15000000000000213
269.079 0.2834000000000003
269.394 0.216700000000003
269.71 0.1667000000000023
270.024 0.15000000000000213
270.341 0.11670000000000158
270.655 0.25
270.969 0.11670000000000158
271.286 0.26670000000000016
271.6 0.18340000000000245
271.914 0.3000000000000007
272.23 0.216700000000003
272.544 0.13340000000000174
272.859 0.2834000000000003
273.175 0.15000000000000213
273.489 0.216700000000003
273.803 0.2834000000000003
274.119 0.20000000000000284
274.433 0.2834000000000003
274.747 0.06670000000000087
275.062 0.15000000000000213
275.378 0.1667000000000023
275.692 0.15000000000000213
276.006 0.1667000000000023
276.322 0.216700000000003
276.636 0.15000000000000213
276.95 0.2834000000000003
277.266 0.06670000000000087
277.58 0.20000000000000284
277.894 0.15000000000000213
278.208 0.25
278.524 0.1667000000000023
278.838 0.23340000000000316
279.152 0.20000000000000284
279.468 0.20000000000000284
279.782 0.11670000000000158
280.096 0.25
280.41 0.216700000000003
280.726 0.1667000000000023
281.04 0.2834000000000003
281.354 0.25
281.668 0.20000000000000284
281.983 0.15000000000000213
282.297 0.2834000000000003
282.611 0.20000000000000284
282.925 0.26670000000000016
283.241 0.216700000000003
283.555 0.31670000000000087
283.868 0.25
284.182 0.1667000000000023
284.498 0.216700000000003
284.812 0.216700000000003
285.126 0.1667000000000023
285.439 0.3000000000000007
285.753 0.1667000000000023
286.069 0.20000000000000284
286.383 0.26670000000000016
286.696 0.15000000000000213
287.01 0.1667000000000023
287.326 0.11670000000000158
287.639 0.25
287.953 0.23340000000000316
288.267 0.23340000000000316
288.58 0.31670000000000087
288.896 0.20000000000000284
289.21 0.25
289.523 0.216700000000003
289.837 0.23340000000000316
290.15 0.20000000000000284
290.466 0.13340000000000174
290.78 0.26670000000000016
291.093 0.216700000000003
291.407 0.18340000000000245
291.72 0.20000000000000284
292.034 0.1667000000000023
292.349 0.216700000000003
292.663 0.1667000000000023
292.976 0.216700000000003
293.29 0.26670000000000016
293.603 0.20000000000000284
293.917 0.13340000000000174
294.232 0.216700000000003
294.546 0.26670000000000016
294.859 0.216700000000003
295.172 0.1667000000000023
295.486 0.23340000000000316
295.799 0.20000000000000284
296.113 0.216700000000003
296.428 0.26670000000000016
296.741 0.18340000000000245
297.055 0.25
297.368 0.26670000000000016
297.681 0.20000000000000284
297.995 0.1667000000000023
298.308 0.11670000000000158
298.621 0.26670000000000016
298.937 0.06670000000000087
299.25 0.26670000000000016
299.563 0.15000000000000213
299.876 0.4167000000000023
300.19 0.23340000000000316
300.503 0.26670000000000016
300.816 0.26670000000000016
301.129 0.2834000000000003
301.442 0.20000000000000284
301.756 0.2834000000000003
302.071 0.08340000000000103
302.384 0.25
302.697 0.20000000000000284
303.01 0.26670000000000016
303.323 0.20000000000000284
303.637 0.11670000000000158
303.95 0.18340000000000245
304.263 0.31670000000000087
304.576 0.18340000000000245
304.889 0.25
305.202 0.26670000000000016
305.515 0.216700000000003
305.828 0.26670000000000016
306.141 0.18340000000000245
306.456 0.25
306.769 0.15000000000000213
307.082 0.26670000000000016
307.395 0.216700000000003
307.708 0.15000000000000213
308.021 0.23340000000000316
308.334 0.1667000000000023
308.647 0.2834000000000003
308.96 0.216700000000003
309.273 0.13340000000000174
309.586 0.23340000000000316
309.899 0.13340000000000174
310.212 0.18340000000000245
310.525 0.13340000000000174
310.838 0.33340000000000103
311.15 0.2834000000000003
311.463 0.3000000000000007
311.776 0.31670000000000087
312.089 0.23340000000000316
312.402 0.26670000000000016
312.715 0.216700000000003
313.027 0.25
313.34 0.25
313.653 0.33340000000000103
313.966 0.23340000000000316
314.278 0.15000000000000213
314.591 0.11670000000000158
314.904 0.33340000000000103
315.217 0.216700000000003
315.529 0.3000000000000007
315.842 0.15000000000000213
316.155 0.11670000000000158
316.467 0.216700000000003
316.78 0.20000000000000284
317.093 0.31670000000000087
317.405 0.18340000000000245
317.718 0.20000000000000284
318.031 0.216700000000003
318.343 0.18340000000000245
318.656 0.26670000000000016
318.969 0.25
319.281 0.13340000000000174
319.592 0.25
319.904 0.2834000000000003
320.217 0.23340000000000316
320.529 0.3667000000000016
320.842 0.25
321.154 0.20000000000000284
321.467 0.2834000000000003
321.779 0.2834000000000003
322.092 0.3000000000000007
322.404 0.26670000000000016
322.717 0.25
323.029 0.3500000000000014
323.342 0.33340000000000103
323.654 0.18340000000000245
323.965 0.20000000000000284
324.277 0.1667000000000023
324.589 0.23340000000000316
324.902 0.2834000000000003
325.214 0.25
325.527 0.18340000000000245
325.839 0.20000000000000284
326.151 0.3000000000000007
326.464 0.3667000000000016
326.776 0.20000000000000284
327.086 0.25
327.399 0.216700000000003
327.711 0.33340000000000103
328.023 0.26670000000000016
328.335 0.4167000000000023
328.648 0.3500000000000014
328.96 0.26670000000000016
329.27 0.31670000000000087
329.582 0.3667000000000016
329.895 0.3500000000000014
330.207 0.43340000000000245
330.519 0.23340000000000316
330.831 0.23340000000000316
331.143 0.3500000000000014
331.454 0.23340000000000316
331.766 0.43340000000000245
332.078 0.33340000000000103
332.39 0.40000000000000213
332.702 0.26670000000000016
333.014 0.38340000000000174
333.326 0.43340000000000245
333.636 0.31670000000000087
333.948 0.1667000000000023
334.261 0.40000000000000213
334.573 0.3000000000000007
334.885 0.40000000000000213
335.195 0.31670000000000087
335.507 0.3000000000000007
335.819 0.2834000000000003
336.131 0.3000000000000007
336.443 0.26670000000000016
336.753 0.31670000000000087
337.065 0.26670000000000016
337.377 0.23340000000000316
337.689 0.3000000000000007
338.001 0.2834000000000003
338.31 0.11670000000000158
338.622 0.3667000000000016
338.934 0.33340000000000103
339.246 0.33340000000000103
339.558 0.2834000000000003
339.868 0.23340000000000316
340.18 0.1667000000000023
340.492 0.3000000000000007
340.804 0.216700000000003
341.113 0.33340000000000103
341.425 0.3500000000000014
341.737 0.40000000000000213
342.049 0.26670000000000016
342.361 0.25
342.67 0.26670000000000016
342.982 0.3667000000000016
343.294 0.3500000000000014
343.606 0.31670000000000087
343.915 0.3500000000000014
344.227 0.3500000000000014
344.539 0.33340000000000103
344.849 0.3500000000000014
345.16 0.3000000000000007
345.472 0.40000000000000213
345.784 0.26670000000000016
346.093 0.3000000000000007
346.405 0.25
346.717 0.25
347.028 0.33340000000000103
347.338 0.31670000000000087
347.649 0.3000000000000007
347.961 0.3000000000000007
348.271 0.3500000000000014
348.582 0.26670000000000016
348.894 0.33340000000000103
349.205 0.31670000000000087
349.515 0.38340000000000174
349.826 0.11670000000000158
350.138 0.2834000000000003
350.447 0.26670000000000016
350.759 0.3000000000000007
351.07 0.3000000000000007
351.38 0.25
351.691 0.31670000000000087
352.003 0.20000000000000284
352.312 0.23340000000000316
352.624 0.216700000000003
352.935 0.216700000000003
353.245 0.25
353.556 0.33340000000000103
353.867 0.20000000000000284
354.177 0.38340000000000174
354.488 0.216700000000003
354.799 0.26670000000000016
355.109 0.23340000000000316
355.42 0.20000000000000284
355.732 0.23340000000000316
356.041 0.25
356.352 0.3000000000000007
356.663 0.26670000000000016
356.973 0.26670000000000016
357.284 0.23340000000000316
357.593 0.3000000000000007
357.905 0.3500000000000014
358.216 0.33340000000000103
358.525 0.2834000000000003
358.836 0.3667000000000016
359.147 0.26670000000000016
359.457 0.31670000000000087
359.768 0.18340000000000245
360.077 0.23340000000000316
360.388 0.2834000000000003
360.699 0.31670000000000087
361.008 0.20000000000000284
361.32 0.216700000000003
361.629 0.216700000000003
361.94 0.3500000000000014
362.251 0.20000000000000284
362.56 0.26670000000000016
362.871 0.26670000000000016
363.18 0.3500000000000014
363.491 0.216700000000003
363.8 0.33340000000000103
364.111 0.33340000000000103
364.422 0.40000000000000213
364.731 0.3000000000000007
365.042 0.25
365.351 0.25
365.662 0.2834000000000003
365.971 0.25
366.282 0.25
366.593 0.23340000000000316
366.902 0.4167000000000023
367.213 0.3500000000000014
367.522 0.26670000000000016
367.833 0.3000000000000007
368.142 0.23340000000000316
368.453 0.26670000000000016
368.762 0.3000000000000007
369.073 0.2834000000000003
369.381 0.3667000000000016
369.692 0.26670000000000016
370.001 0.26670000000000016
370.312 0.216700000000003
370.623 0.2834000000000003
370.932 0.23340000000000316
371.242 0.1667000000000023
371.551 0.3500000000000014
371.862 0.25
372.171 0.3500000000000014
372.482 0.33340000000000103
372.79 0.3667000000000016
373.101 0.26670000000000016
373.41 0.2834000000000003
373.721 0.20000000000000284
374.029 0.38340000000000174
374.34 0.15000000000000213
374.649 0.23340000000000316
374.959 0.3500000000000014
375.268 0.26670000000000016
375.577 0.33340000000000103
375.887 0.216700000000003
376.196 0.2834000000000003
376.506 0.23340000000000316
376.815 0.3000000000000007
377.126 0.3500000000000014
377.434 0.23340000000000316
377.745 0.3000000000000007
378.053 0.25
378.364 0.216700000000003
378.672 0.23340000000000316
378.983 0.26670000000000016
379.292 0.40000000000000213
379.6 0.25
379.911 0.40000000000000213
380.219 0.33340000000000103
380.53 0.23340000000000316
380.838 0.3500000000000014
381.148 0.3000000000000007
381.457 0.20000000000000284
381.767 0.2834000000000003
382.076 0.3000000000000007
382.384 0.4167000000000023
382.695 0.43340000000000245
383.003 0.26670000000000016
383.313 0.38340000000000174
383.622 0.33340000000000103
383.93 0.3500000000000014
384.24 0.3000000000000007
384.549 0.20000000000000284
384.859 0.3500000000000014
385.167 0.25
385.476 0.38340000000000174
385.786 0.25
386.094 0.23340000000000316
386.405 0.26670000000000016
386.713 0.38340000000000174
387.021 0.3000000000000007
387.331 0.33340000000000103
387.64 0.15000000000000213
387.948 0.2834000000000003
388.258 0.31670000000000087
388.566 0.26670000000000016
388.877 0.31670000000000087
389.185 0.4167000000000023
389.493 0.38340000000000174
389.803 0.40000000000000213
390.111 0.216700000000003
390.419 0.4167000000000023
390.729 0.2834000000000003
391.038 0.4167000000000023
391.346 0.3500000000000014
391.656 0.45000000000000284
391.964 0.31670000000000087
392.272 0.3500000000000014
392.582 0.43340000000000245
392.89 0.40000000000000213
393.198 0.26670000000000016
393.508 0.31670000000000087
393.816 0.33340000000000103
394.124 0.31670000000000087
394.434 0.3000000000000007
394.742 0.31670000000000087
395.05 0.33340000000000103
395.36 0.31670000000000087
395.668 0.45000000000000284
395.976 0.40000000000000213
396.286 0.40000000000000213
396.594 0.5
396.902 0.3500000000000014
397.21 0.3000000000000007
397.52 0.40000000000000213
397.828 0.31670000000000087
398.135 0.25
398.445 0.23340000000000316
398.753 0.26670000000000016
399.061 0.33340000000000103
399.369 0.40000000000000213
399.679 0.48340000000000316
399.987 0.2834000000000003
400.294 0.4167000000000023
400.604 0.31670000000000087
400.912 0.33340000000000103
401.22 0.4167000000000023
401.527 0.2834000000000003
401.837 0.3667000000000016
402.145 0.3000000000000007
402.453 0.26670000000000016
402.76 0.4167000000000023
403.07 0.38340000000000174
403.378 0.33340000000000103
403.686 0.31670000000000087
403.993 0.26670000000000016
404.303 0.45000000000000284
404.611 0.3000000000000007
404.918 0.26670000000000016
405.226 0.31670000000000087
405.533 0.43340000000000245
405.843 0.38340000000000174
406.151 0.33340000000000103
406.458 0.3500000000000014
406.766 0.43340000000000245
407.076 0.31670000000000087
407.383 0.33340000000000103
407.691 0.4167000000000023
407.998 0.31670000000000087
408.306 0.3500000000000014
408.615 0.3500000000000014
408.923 0.4167000000000023
409.23 0.5334000000000003
409.538 0.31670000000000087
409.845 0.43340000000000245
410.153 0.3667000000000016
410.462 0.3500000000000014
410.77 0.48340000000000316
411.077 0.48340000000000316
411.384 0.43340000000000245
411.692 0.466700000000003
412.001 0.40000000000000213
412.309 0.466700000000003
412.616 0.5
412.923 0.48340000000000316
413.231 0.45000000000000284
413.538 0.3500000000000014
413.845 0.40000000000000213
414.155 0.4167000000000023
414.462 0.6500000000000021
414.769 0.5500000000000007
415.077 0.5334000000000003
415.384 0.5
415.691 0.6834000000000024
415.999 0.583400000000001
416.308 0.5667000000000009
416.615 0.5500000000000007
416.922 0.7000000000000028
417.23 0.6167000000000016
417.537 0.8167000000000009
417.844 0.5
418.151 0.6667000000000023
418.458 0.716700000000003
418.768 0.8500000000000014
419.075 0.9167000000000023
419.382 0.8834000000000017
419.689 1.0334000000000003
419.996 0.9000000000000021
420.303 0.8167000000000009
420.61 1.0
420.918 1.0167000000000002
421.225 1.083400000000001
421.532 1.0167000000000002
421.841 1.1834000000000024
422.148 1.1334000000000017
422.455 1.0167000000000002
422.762 1.4834000000000032
423.069 1.1334000000000017
423.376 1.2000000000000028
423.683 1.216700000000003
423.99 1.1167000000000016
424.297 1.3667000000000016
424.604 1.1500000000000021
424.911 1.3167000000000009
425.218 1.3500000000000014
425.525 1.2000000000000028
425.832 1.1834000000000024
426.139 1.1834000000000024
426.446 1.2000000000000028
426.753 1.0
427.061 1.2000000000000028
427.368 0.9834000000000032
427.675 0.9334000000000024
427.982 1.1000000000000014
428.289 0.9834000000000032
428.596 0.8500000000000014
428.903 0.9334000000000024
429.209 0.833400000000001
429.516 0.8834000000000017
429.823 0.716700000000003
430.13 0.8000000000000007
430.437 0.7667000000000002
430.743 0.833400000000001
431.05 0.8167000000000009
431.357 0.7000000000000028
431.664 0.7667000000000002
431.97 0.75
432.277 0.833400000000001
432.584 0.583400000000001
432.891 0.5334000000000003
433.197 0.6000000000000014
433.504 0.466700000000003
433.811 0.7000000000000028
434.117 0.6334000000000017
434.424 0.5667000000000009
434.731 0.5334000000000003
435.037 0.5167000000000002
435.344 0.5500000000000007
435.65 0.6500000000000021
435.957 0.6000000000000014
436.262 0.7334000000000032
436.568 0.466700000000003
436.875 0.43340000000000245
437.181 0.45000000000000284
437.488 0.45000000000000284
437.794 0.5
438.101 0.5167000000000002
438.407 0.3500000000000014
438.714 0.4167000000000023
439.02 0.43340000000000245
439.327 0.48340000000000316
439.633 0.5
439.94 0.43340000000000245
440.246 0.5167000000000002
440.553 0.45000000000000284
440.859 0.40000000000000213
441.163 0.4167000000000023
441.47 0.38340000000000174
441.776 0.5
442.083 0.31670000000000087
442.389 0.45000000000000284
442.695 0.33340000000000103
443.002 0.3500000000000014
443.308 0.3500000000000014
443.614 0.3500000000000014
443.921 0.31670000000000087
444.225 0.3500000000000014
444.531 0.3000000000000007
444.838 0.3667000000000016
445.144 0.38340000000000174
445.45 0.4167000000000023
445.757 0.48340000000000316
446.063 0.33340000000000103
446.369 0.48340000000000316
446.675 0.43340000000000245
446.979 0.45000000000000284
447.286 0.26670000000000016
447.592 0.3500000000000014
447.898 0.43340000000000245
448.204 0.2834000000000003
448.51 0.48340000000000316
448.817 0.4167000000000023
449.121 0.4167000000000023
449.427 0.40000000000000213
449.733 0.48340000000000316
450.039 0.48340000000000316
450.345 0.43340000000000245
450.651 0.4430081060490849
450.955 0.48699837931220813
451.261 0.5001726240034223
451.568 0.5027721855691993
451.874 0.4929629375689295
452.18 0.49583634961176415
452.486 0.4948947862863662
452.79 0.4916637663127368
453.096 0.5334000000000003
453.402 0.40000000000000213
453.708 0.5
454.014 0.4167000000000023
454.318 0.3000000000000007
454.624 0.466700000000003
454.93 0.31670000000000087
455.236 0.23340000000000316
455.541 0.33340000000000103
455.845 0.38340000000000174
456.151 0.40000000000000213
456.457 0.3667000000000016
456.763 0.3000000000000007
457.067 0.3000000000000007
457.373 0.31670000000000087
457.679 0.38340000000000174
457.985 0.38340000000000174
458.29 0.40000000000000213
458.594 0.2834000000000003
458.9 0.38340000000000174
459.206 0.31670000000000087
459.512 0.3000000000000007
459.815 0.5
460.121 0.3000000000000007
460.427 0.31670000000000087
460.733 0.38340000000000174
461.036 0.26670000000000016
461.342 0.5167000000000002
461.648 0.23340000000000316
461.954 0.31670000000000087
462.257 0.45000000000000284
462.563 0.3667000000000016
462.869 0.33340000000000103
463.172 0.31670000000000087
463.478 0.38340000000000174
463.784 0.3500000000000014
464.089 0.33340000000000103
464.393 0.43340000000000245
464.699 0.3000000000000007
465.004 0.31670000000000087
465.308 0.40000000000000213
465.613 0.3667000000000016
465.919 0.38340000000000174
466.225 0.466700000000003
466.528 0.38340000000000174
466.834 0.33340000000000103
467.139 0.45000000000000284
467.443 0.5500000000000007
467.748 0.2834000000000003
468.054 0.3000000000000007
468.357 0.33340000000000103
468.663 0.33340000000000103
468.968 0.38340000000000174
469.272 0.43340000000000245
469.577 0.43340000000000245
469.883 0.38340000000000174
470.186 0.3667000000000016
470.492 0.43340000000000245
470.797 0.31670000000000087
471.1 0.4167000000000023
471.406 0.3500000000000014
471.711 0.40000000000000213
472.014 0.45000000000000284
472.32 0.40000000000000213
472.625 0.40000000000000213
472.929 0.48340000000000316
473.234 0.40000000000000213
473.539 0.4167000000000023
473.843 0.2834000000000003
474.148 0.3667000000000016
474.451 0.33340000000000103
474.756 0.45000000000000284
475.062 0.43340000000000245
475.365 0.31670000000000087
475.67 0.45000000000000284
475.973 0.26670000000000016
476.279 0.6500000000000021
476.584 0.6834000000000024
476.887 0.5334000000000003
477.192 0.6334000000000017
477.498 0.8834000000000017
477.801 0.8500000000000014
478.106 0.8167000000000009
478.409 0.716700000000003
478.714 0.7334000000000032
479.017 0.8167000000000009
479.322 0.75
479.628 0.8500000000000014
479.931 0.6000000000000014
480.236 0.8000000000000007
480.539 0.6500000000000021
480.844 0.7334000000000032
481.147 0.8834000000000017
481.452 0.6834000000000024
481.757 0.8834000000000017
482.06 0.9334000000000024
482.365 0.6500000000000021
482.668 0.7834000000000003
482.973 0.7000000000000028
483.276 0.6834000000000024
483.581 0.7000000000000028
483.884 0.7000000000000028
484.189 0.5667000000000009
484.494 0.6667000000000023
484.797 0.48340000000000316
485.102 0.4167000000000023
485.405 0.5167000000000002
485.71 0.4167000000000023
486.013 0.38340000000000174
486.318 0.48340000000000316
486.621 0.5
486.925 0.3500000000000014
487.228 0.5500000000000007
487.533 0.48340000000000316
487.836 0.3000000000000007
488.141 0.3000000000000007
488.444 0.38340000000000174
488.748 0.43340000000000245
489.051 0.466700000000003
489.356 0.2834000000000003
489.659 0.3667000000000016
489.964 0.45000000000000284
490.266 0.3500000000000014
490.571 0.33340000000000103
490.874 0.3500000000000014
491.179 0.33340000000000103
491.481 0.40000000000000213
491.786 0.20000000000000284
492.089 0.3500000000000014
492.393 0.3667000000000016
492.696 0.40000000000000213
493.001 0.40000000000000213
493.303 0.43340000000000245
493.606 0.2834000000000003
493.911 0.38340000000000174
494.213 0.18340000000000245
494.518 0.43340000000000245
494.821 0.26670000000000016
495.125 0.3667000000000016
495.428 0.4167000000000023
495.732 0.3667000000000016
496.035 0.20000000000000284
496.337 0.3667000000000016
496.642 0.3667000000000016
496.945 0.33340000000000103
497.249 0.3000000000000007
497.552 0.26670000000000016
497.856 0.40000000000000213
498.159 0.216700000000003
498.461 0.33340000000000103
498.766 0.3000000000000007
499.068 0.3500000000000014
499.372 0.31670000000000087
499.675 0.3500000000000014
499.977 0.3667000000000016
500.282 0.31670000000000087
500.584 0.43340000000000245
500.889 0.33340000000000103
501.191 0.3667000000000016
501.493 0.2834000000000003
501.798 0.33340000000000103
502.1 0.3667000000000016
502.402 0.40000000000000213
502.707 0.3000000000000007
503.009 0.38340000000000174
503.314 0.26670000000000016
503.616 0.2834000000000003
503.918 0.3000000000000007
504.222 0.3000000000000007
504.525 0.2834000000000003
504.827 0.3500000000000014
505.131 0.3667000000000016
505.433 0.25
505.736 0.38340000000000174
506.04 0.31670000000000087
506.342 0.3000000000000007
506.646 0.20000000000000284
506.949 0.45000000000000284
507.251 0.3667000000000016
507.555 0.20000000000000284
507.857 0.31670000000000087
508.159 0.25
508.461 0.23340000000000316
508.766 0.23340000000000316
509.068 0.4167000000000023
509.37 0.33340000000000103
509.674 0.3000000000000007
509.976 0.33340000000000103
510.278 0.25
510.582 0.3667000000000016
510.884 0.466700000000003
511.186 0.38340000000000174
511.49 0.3000000000000007
511.792 0.3667000000000016
512.094 0.40000000000000213
512.396 0.466700000000003
512.701 0.3667000000000016
513.003 0.3667000000000016
513.305 0.3667000000000016
513.609 0.38340000000000174
513.91 0.3000000000000007
514.212 0.25
514.514 0.3500000000000014
514.818 0.3667000000000016
515.12 0.26670000000000016
515.422 0.40000000000000213
515.724 0.45000000000000284
516.028 0.4167000000000023
516.33 0.40000000000000213
516.632 0.31670000000000087
516.934 0.33340000000000103
517.237 0.33340000000000103
517.539 0.20000000000000284
517.841 0.45000000000000284
518.143 0.2834000000000003
518.447 0.26670000000000016
518.749 0.3000000000000007
519.05 0.5
519.352 0.40000000000000213
519.656 0.40000000000000213
519.958 0.38340000000000174
520.26 0.40000000000000213
520.561 0.26670000000000016
520.863 0.26670000000000016
521.167 0.26670000000000016
521.468 0.3667000000000016
521.77 0.23340000000000316
522.072 0.2834000000000003
522.376 0.3500000000000014
522.677 0.3667000000000016
522.979 0.3000000000000007
523.281 0.3667000000000016
523.582 0.26670000000000016
523.884 0.2834000000000003
524.187 0.26670000000000016
524.489 0.33340000000000103
524.791 0.23340000000000316
525.092 0.31670000000000087
525.394 0.2834000000000003
525.697 0.5334000000000003
525.999 0.2834000000000003
526.301 0.31670000000000087
526.602 0.3000000000000007
526.904 0.3500000000000014
527.205 0.48340000000000316
527.507 0.38340000000000174
527.81 0.3667000000000016
528.112 0.26670000000000016
528.413 0.38340000000000174
528.715 0.2834000000000003
529.016 0.40000000000000213
529.318 0.2834000000000003
529.619 0.4167000000000023
529.922 0.3500000000000014
530.224 0.3000000000000007
530.525 0.31670000000000087
530.827 0.2834000000000003
531.128 0.2834000000000003
531.429 0.31670000000000087
531.731 0.2834000000000003
532.032 0.3667000000000016
532.336 0.3000000000000007
532.637 0.45000000000000284
532.938 0.3000000000000007
533.24 0.40000000000000213
533.541 0.3667000000000016
533.842 0.25
534.143 0.3000000000000007
534.445 0.3667000000000016
534.746 0.38340000000000174
535.047 0.23340000000000316
535.351 0.4167000000000023
535.652 0.31670000000000087
535.953 0.3500000000000014
536.254 0.31670000000000087
536.555 0.2834000000000003
536.857 0.26670000000000016
537.158 0.26670000000000016
537.459 0.40000000000000213
537.76 0.466700000000003
538.061 0.20000000000000284
538.362 0.2834000000000003
538.664 0.3500000000000014
538.965 0.2834000000000003
539.266 0.45000000000000284
539.567 0.23340000000000316
539.868 0.2834000000000003
540.169 0.5
540.472 0.3000000000000007
540.773 0.33340000000000103
541.074 0.3667000000000016
541.375 0.40000000000000213
541.677 0.38340000000000174
541.978 0.2834000000000003
542.279 0.3500000000000014
542.58 0.3500000000000014
542.881 0.2834000000000003
543.182 0.31670000000000087
543.483 0.3500000000000014
543.784 0.33340000000000103
544.085 0.25
544.385 0.3000000000000007
544.686 0.3500000000000014
544.987 0.31670000000000087
545.288 0.3667000000000016
545.589 0.31670000000000087
545.89 0.5
546.191 0.3000000000000007
546.492 0.33340000000000103
546.793 0.33340000000000103
547.094 0.3500000000000014
547.394 0.33340000000000103
547.695 0.31670000000000087
547.996 0.4167000000000023
548.297 0.38340000000000174
548.596 0.3500000000000014
548.897 0.48340000000000316
549.197 0.38340000000000174
549.498 0.4167000000000023
549.799 0.466700000000003
550.1 0.466700000000003
550.4 0.43340000000000245
550.701 0.3000000000000007
551.002 0.3000000000000007
551.303 0.43340000000000245
551.603 0.38340000000000174
551.904 0.466700000000003
552.205 0.466700000000003
552.505 0.5167000000000002
552.806 0.5667000000000009
553.107 0.4167000000000023
553.407 0.583400000000001
553.706 0.6667000000000023
554.007 0.43340000000000245
554.307 0.5
554.608 0.40000000000000213
554.909 0.48340000000000316
555.209 0.583400000000001
555.51 0.5
555.81 0.583400000000001
556.111 0.45000000000000284
556.411 0.5500000000000007
556.71 0.38340000000000174
557.01 0.45000000000000284
557.311 0.5667000000000009
557.612 0.5334000000000003
557.912 0.5167000000000002
558.213 0.6000000000000014
558.513 0.7000000000000028
558.813 0.583400000000001
559.112 0.5
559.412 0.583400000000001
559.713 0.4167000000000023
560.013 0.5167000000000002
560.314 0.3667000000000016
560.614 0.40000000000000213
560.914 0.48340000000000316
561.213 0.40000000000000213
561.513 0.43340000000000245
561.814 0.38340000000000174
562.114 0.3500000000000014
562.414 0.45000000000000284
562.715 0.3500000000000014
563.015 0.4167000000000023
563.313 0.3667000000000016
563.614 0.4167000000000023
563.914 0.3667000000000016
564.214 0.45000000000000284
564.515 0.40000000000000213
564.813 0.31670000000000087
565.113 0.3500000000000014
565.413 0.3667000000000016
565.714 0.31670000000000087
566.014 0.38340000000000174
566.312 0.43340000000000245
566.612 0.23340000000000316
566.912 0.466700000000003
567.213 0.3667000000000016
567.513 0.216700000000003
567.811 0.2834000000000003
568.111 0.38340000000000174
568.411 0.38340000000000174
568.712 0.23340000000000316
569.012 0.38340000000000174
569.31 0.4167000000000023
569.61 0.3667000000000016
569.91 0.3667000000000016
570.21 0.3000000000000007
570.508 0.31670000000000087
570.808 0.216700000000003
571.108 0.3667000000000016
571.408 0.25
571.706 0.33340000000000103
572.006 0.3500000000000014
572.306 0.3667000000000016
572.607 0.38340000000000174
572.904 0.45000000000000284
573.204 0.40000000000000213
573.505 0.3500000000000014
573.805 0.25
574.102 0.3667000000000016
574.402 0.4167000000000023
574.702 0.5667000000000009
575.002 0.25
575.3 0.26670000000000016
575.6 0.3667000000000016
575.9 0.20000000000000284
576.198 0.3667000000000016
576.498 0.3500000000000014
576.798 0.31670000000000087
577.098 0.4167000000000023
577.395 0.40000000000000213
577.695 0.31670000000000087
577.995 0.2834000000000003
578.293 0.3500000000000014
578.593 0.43340000000000245
578.893 0.1667000000000023
579.19 0.38340000000000174
579.49 0.40000000000000213
579.79 0.3667000000000016
580.088 0.4167000000000023
580.387 0.25
580.687 0.3500000000000014
580.985 0.4167000000000023
581.285 0.31670000000000087
581.584 0.3500000000000014
581.882 0.1667000000000023
582.182 0.216700000000003
582.482 0.31670000000000087
582.779 0.2834000000000003
583.079 0.4167000000000023
583.378 0.25
583.676 0.3500000000000014
583.976 0.43340000000000245
584.275 0.25
584.573 0.31670000000000087
584.873 0.216700000000003
585.17 0.3667000000000016
585.47 0.2834000000000003
585.769 0.3500000000000014
586.067 0.3500000000000014
586.367 0.2834000000000003
586.666 0.33340000000000103
586.964 0.33340000000000103
587.263 0.40000000000000213
587.561 0.33340000000000103
587.86 0.26670000000000016
588.16 0.33340000000000103
588.457 0.26670000000000016
588.757 0.4167000000000023
589.054 0.3667000000000016
589.354 0.38340000000000174
589.653 0.5667000000000009
589.951 0.40000000000000213
590.25 0.3667000000000016
590.547 0.33340000000000103
590.847 0.23340000000000316
591.144 0.466700000000003
591.444 0.45000000000000284
591.743 0.216700000000003
592.04 0.43340000000000245
592.34 0.2834000000000003
592.637 0.26670000000000016
592.936 0.33340000000000103
593.234 0.2834000000000003
593.533 0.3000000000000007
593.832 0.3000000000000007
594.13 0.33340000000000103
594.429 0.33340000000000103
594.726 0.33340000000000103
595.026 0.3000000000000007
595.323 0.3000000000000007
595.622 0.3500000000000014
595.919 0.2834000000000003
596.219 0.25
596.516 0.2834000000000003
596.815 0.3000000000000007
597.112 0.3667000000000016
597.411 0.3000000000000007
597.709 0.3000000000000007
598.008 0.45000000000000284
598.305 0.3500000000000014
598.604 0.26670000000000016
598.901 0.23340000000000316
599.2 0.38340000000000174
599.497 0.25
599.797 0.3000000000000007
600.094 0.40000000000000213
600.393 0.33340000000000103
600.69 0.45000000000000284
600.989 0.43340000000000245
601.286 0.38340000000000174
601.585 0.3500000000000014
601.882 0.31670000000000087
602.181 0.3500000000000014
602.478 0.3500000000000014
602.777 0.2834000000000003
603.074 0.3000000000000007
603.373 0.3667000000000016
603.67 0.3000000000000007
603.969 0.38340000000000174
604.266 0.33340000000000103
604.563 0.31670000000000087
604.862 0.33340000000000103
605.159 0.26670000000000016
605.458 0.40000000000000213
605.755 0.3000000000000007
606.054 0.466700000000003
606.351 0.31670000000000087
606.65 0.45000000000000284
606.946 0.3500000000000014
607.243 0.3500000000000014
607.542 0.40000000000000213
607.839 0.43340000000000245
608.138 0.48340000000000316
608.435 0.3000000000000007
608.732 0.3000000000000007
609.03 0.43340000000000245
609.327 0.4167000000000023
609.626 0.3667000000000016
609.923 0.40000000000000213
610.22 0.26670000000000016
610.518 0.4167000000000023
610.815 0.3500000000000014
611.114 0.48340000000000316
611.411 0.5667000000000009
611.707 0.6000000000000014
612.006 0.45000000000000284
612.303 0.5167000000000002
612.601 0.48340000000000316
612.898 0.45000000000000284
613.195 0.5
613.493 0.40000000000000213
613.79 0.45000000000000284
614.087 0.5167000000000002
614.385 0.3500000000000014
614.682 0.45000000000000284
614.979 0.38340000000000174
615.277 0.5
615.574 0.48340000000000316
615.87 0.3667000000000016
616.169 0.40000000000000213
616.466 0.43340000000000245
616.764 0.25
617.061 0.45000000000000284
617.357 0.43340000000000245
617.656 0.5
617.952 0.3667000000000016
618.249 0.40000000000000213
618.545 0.4167000000000023
618.844 0.38340000000000174
619.14 0.40000000000000213
619.437 0.43340000000000245
619.735 0.3500000000000014
620.032 0.4167000000000023
620.328 0.3500000000000014
620.626 0.3500000000000014
620.923 0.40000000000000213
621.219 0.48340000000000316
621.518 0.466700000000003
621.814 0.23340000000000316
622.11 0.31670000000000087
622.407 0.3000000000000007
622.705 0.33340000000000103
623.002 0.3000000000000007
623.298 0.4167000000000023
623.594 0.40000000000000213
623.893 0.31670000000000087
624.189 0.4167000000000023
624.485 0.2834000000000003
624.784 0.23340000000000316
625.08 0.3500000000000014
625.376 0.3500000000000014
625.672 0.4167000000000023
625.971 0.33340000000000103
626.267 0.31670000000000087
626.563 0.26670000000000016
626.859 0.33340000000000103
627.158 0.3000000000000007
627.454 0.3500000000000014
627.75 0.33340000000000103
628.046 0.466700000000003
628.342 0.40000000000000213
628.641 0.33340000000000103
628.937 0.4167000000000023
629.233 0.38340000000000174
629.529 0.2834000000000003
629.827 0.3500000000000014
630.123 0.4167000000000023
630.419 0.5
630.715 0.33340000000000103
631.011 0.38340000000000174
631.31 0.31670000000000087
631.606 0.3500000000000014
631.902 0.40000000000000213
632.198 0.31670000000000087
632.494 0.33340000000000103
632.792 0.26670000000000016
633.088 0.3500000000000014
633.384 0.3000000000000007
633.68 0.40000000000000213
633.976 0.3500000000000014
634.272 0.20000000000000284
634.57 0.38340000000000174
634.866 0.40000000000000213
635.162 0.40000000000000213
635.458 0.3000000000000007
635.754 0.06670000000000087
636.05 0.3500000000000014
636.347 0.40000000000000213
636.643 0.26670000000000016
636.939 0.31670000000000087
637.235 0.3500000000000014
637.531 0.5
637.827 0.26670000000000016
638.123 0.43340000000000245
638.421 0.31670000000000087
638.716 0.2834000000000003
639.012 0.26670000000000016
639.308 0.3500000000000014
639.604 0.31670000000000087
639.9 0.38340000000000174
640.195 0.3667000000000016
640.491 0.3667000000000016
640.789 0.26670000000000016
641.085 0.33340000000000103
641.381 0.216700000000003
641.676 0.40000000000000213
641.972 0.31670000000000087
642.268 0.3500000000000014
642.563 0.3000000000000007
642.859 0.20000000000000284
643.155 0.4167000000000023
643.451 0.48340000000000316
643.746 0.25
644.044 0.3667000000000016
644.34 0.3667000000000016
644.635 0.23340000000000316
644.931 0.33340000000000103
645.227 0.3667000000000016
645.522 0.45000000000000284
645.818 0.466700000000003
646.113 0.25
646.409 0.45000000000000284
646.704 0.3500000000000014
647.0 0.3667000000000016
647.296 0.38340000000000174
647.591 0.31670000000000087
647.887 0.31670000000000087
648.182 0.38340000000000174
648.478 0.2834000000000003
648.773 0.40000000000000213
649.069 0.2834000000000003
649.366 0.4167000000000023
649.662 0.3667000000000016
649.957 0.45000000000000284
650.253 0.4167000000000023
650.548 0.3667000000000016
650.844 0.45000000000000284
651.139 0.3667000000000016
651.434 0.48340000000000316
651.73 0.3500000000000014
652.025 0.40000000000000213
652.321 0.3000000000000007
652.616 0.4167000000000023
652.911 0.466700000000003
653.207 0.5167000000000002
653.502 0.3667000000000016
653.797 0.45000000000000284
654.093 0.5334000000000003
654.388 0.45000000000000284
654.683 0.466700000000003
654.979 0.5
655.274 0.31670000000000087
655.567 0.6500000000000021
655.863 0.5500000000000007
656.158 0.45000000000000284
656.453 0.3500000000000014
656.748 0.40000000000000213
657.044 0.5334000000000003
657.339 0.5500000000000007
657.634 0.5334000000000003
657.929 0.48340000000000316
658.224 0.5334000000000003
658.52 0.5500000000000007
658.815 0.4167000000000023
659.11 0.6667000000000023
659.405 0.6500000000000021
659.7 0.6334000000000017
659.995 0.6667000000000023
660.291 0.583400000000001
660.586 0.6334000000000017
660.879 0.6000000000000014
661.174 0.7000000000000028
661.469 0.7667000000000002
661.764 0.5500000000000007
662.059 0.5334000000000003
662.354 0.6334000000000017
662.649 0.6000000000000014
662.944 0.5500000000000007
663.239 0.48340000000000316
663.534 0.7834000000000003
663.83 0.48340000000000316
664.122 0.716700000000003
664.417 0.6500000000000021
664.713 0.5
665.008 0.5167000000000002
665.302 0.466700000000003
665.597 0.38340000000000174
665.892 0.5334000000000003
666.187 0.40000000000000213
666.48 0.40000000000000213
666.775 0.4167000000000023
667.07 0.5
667.365 0.45000000000000284
667.66 0.3000000000000007
667.955 0.48340000000000316
668.25 0.466700000000003
668.542 0.40000000000000213
668.837 0.5167000000000002
669.132 0.3667000000000016
669.427 0.5500000000000007
669.722 0.5334000000000003
670.017 0.5
670.31 0.48340000000000316
670.604 0.26670000000000016
670.899 0.38340000000000174
671.194 0.3667000000000016
671.489 0.3000000000000007
671.783 0.43340000000000245
672.076 0.3667000000000016
672.371 0.48340000000000316
672.666 0.31670000000000087
672.96 0.3667000000000016
673.255 0.45000000000000284
673.548 0.33340000000000103
673.842 0.45000000000000284
674.137 0.33340000000000103
674.432 0.38340000000000174
674.727 0.38340000000000174
675.019 0.26670000000000016
675.314 0.38340000000000174
675.608 0.26670000000000016
675.903 0.31670000000000087
676.196 0.40000000000000213
676.49 0.3000000000000007
676.785 0.3667000000000016
677.079 0.3500000000000014
677.374 0.466700000000003
677.667 0.31670000000000087
677.961 0.33340000000000103
678.256 0.38340000000000174
678.55 0.3000000000000007
678.843 0.3667000000000016
679.137 0.33340000000000103
679.432 0.216700000000003
679.726 0.43340000000000245
680.019 0.23340000000000316
680.313 0.26670000000000016
680.608 0.2834000000000003
680.902 0.2834000000000003
681.195 0.26670000000000016
681.489 0.25
681.784 0.33340000000000103
682.076 0.466700000000003
682.37 0.3667000000000016
682.665 0.48340000000000316
682.959 0.3667000000000016
683.252 0.3667000000000016
683.546 0.3500000000000014
683.84 0.3667000000000016
684.133 0.40000000000000213
684.427 0.4167000000000023
684.721 0.43340000000000245
685.014 0.43340000000000245
685.308 0.3667000000000016
685.602 0.3667000000000016
685.895 0.31670000000000087
686.189 0.3667000000000016
686.483 0.4167000000000023
686.778 0.23340000000000316
687.07 0.4167000000000023
687.364 0.26670000000000016
687.658 0.3500000000000014
687.951 0.4167000000000023
688.245 0.4167000000000023
688.537 0.3667000000000016
688.831 0.33340000000000103
689.125 0.466700000000003
689.418 0.3667000000000016
689.712 0.33340000000000103
690.006 0.3667000000000016
690.298 0.3667000000000016
690.592 0.3000000000000007
690.886 0.43340000000000245
691.178 0.31670000000000087
691.473 0.466700000000003
691.767 0.18340000000000245
692.059 0.2834000000000003
692.353 0.25
692.645 0.26670000000000016
692.939 0.2834000000000003
693.233 0.31670000000000087
693.525 0.33340000000000103
693.819 0.31670000000000087
694.111 0.3500000000000014
694.405 0.31670000000000087
694.699 0.4167000000000023
694.991 0.3000000000000007
695.285 0.3667000000000016
695.577 0.33340000000000103
695.871 0.45000000000000284
696.165 0.33340000000000103
696.457 0.40000000000000213
696.751 0.3500000000000014
697.043 0.25
697.337 0.31670000000000087
697.629 0.2834000000000003
697.923 0.2834000000000003
698.217 0.31670000000000087
698.509 0.31670000000000087
698.802 0.3667000000000016
699.094 0.38340000000000174
699.388 0.3667000000000016
699.68 0.3667000000000016
699.974 0.48340000000000316
700.266 0.2834000000000003
700.56 0.48340000000000316
700.853 0.25
701.145 0.3667000000000016
701.439 0.3500000000000014
701.731 0.25
702.025 0.31670000000000087
702.316 0.38340000000000174
702.61 0.33340000000000103
702.902 0.31670000000000087
703.196 0.26670000000000016
703.487 0.3667000000000016
703.781 0.3500000000000014
704.073 0.31670000000000087
704.367 0.3000000000000007
704.658 0.466700000000003
704.952 0.26670000000000016
705.244 0.3000000000000007
705.537 0.3667000000000016
705.829 0.38340000000000174
706.122 0.26670000000000016
706.414 0.3500000000000014
706.708 0.3000000000000007
706.999 0.33340000000000103
707.293 0.31670000000000087
