# Created: 2019-11-28 13:05:38.153801
# rshift intensity
76.1738 0.23329999999999984
76.4989 0.18330000000000268
76.824 0.23329999999999984
77.1491 0.15000000000000213
77.4721 0.11670000000000158
77.7972 0.18330000000000268
78.1223 0.1667000000000023
78.4474 0.11670000000000158
78.7724 0.13330000000000197
79.0975 0.10000000000000142
79.4204 0.0
79.7454 0.05000000000000071
80.0704 0.08330000000000126
80.3954 0.15000000000000213
80.7204 0.18330000000000268
81.0454 0.08330000000000126
81.3682 0.08330000000000126
81.6931 0.18330000000000268
82.0181 0.06670000000000087
82.343 0.18330000000000268
82.6679 0.1667000000000023
82.9907 0.216700000000003
83.3156 0.1667000000000023
83.6405 0.15000000000000213
83.9654 0.10000000000000142
84.2903 0.08330000000000126
84.613 0.03330000000000055
84.9378 0.05000000000000071
85.2626 0.11670000000000158
85.5875 0.10000000000000142
85.9101 0.15000000000000213
86.2349 0.03330000000000055
86.5597 0.11670000000000158
86.8845 0.1667000000000023
87.2093 0.08330000000000126
87.5319 0.15000000000000213
87.8566 0.08330000000000126
88.1814 0.15000000000000213
88.5061 0.03330000000000055
88.8286 0.10000000000000142
89.1533 0.13330000000000197
89.478 0.05000000000000071
89.8027 0.08330000000000126
90.1252 0.08330000000000126
90.4499 0.15000000000000213
90.7745 0.15000000000000213
91.0992 0.05000000000000071
91.4216 0.06670000000000087
91.7462 0.13330000000000197
92.0708 0.15000000000000213
92.3954 0.11670000000000158
92.7179 0.08330000000000126
93.0424 0.11670000000000158
93.367 0.06670000000000087
93.6915 0.11670000000000158
94.0139 0.06670000000000087
94.3384 0.10000000000000142
94.6629 0.03330000000000055
94.9853 0.05000000000000071
95.3098 0.10000000000000142
95.6342 0.13330000000000197
95.9587 0.10000000000000142
96.281 0.216700000000003
96.6055 0.06670000000000087
96.9299 0.13330000000000197
97.2522 0.11670000000000158
97.5766 0.18330000000000268
97.901 0.11670000000000158
98.2232 0.20000000000000284
98.5476 0.06670000000000087
98.8719 0.13330000000000197
99.1942 0.10000000000000142
99.5185 0.06670000000000087
99.8428 0.10000000000000142
100.165 0.25
100.489 0.13330000000000197
100.814 0.11670000000000158
101.136 0.23329999999999984
101.46 0.03330000000000055
101.784 0.216700000000003
102.106 0.26670000000000016
102.431 0.20000000000000284
102.755 0.13330000000000197
103.077 0.10000000000000142
103.401 0.11670000000000158
103.725 0.15000000000000213
104.047 0.08330000000000126
104.372 0.1667000000000023
104.696 0.11670000000000158
105.018 0.11670000000000158
105.342 0.13330000000000197
105.666 0.1667000000000023
105.988 0.216700000000003
106.312 0.10000000000000142
106.634 0.18330000000000268
106.958 0.06670000000000087
107.282 0.03330000000000055
107.604 0.18330000000000268
107.928 0.10000000000000142
108.252 0.20000000000000284
108.574 0.11670000000000158
108.898 0.15000000000000213
109.22 0.10000000000000142
109.544 0.20000000000000284
109.868 0.08330000000000126
110.19 0.11670000000000158
110.514 0.05000000000000071
110.836 0.03330000000000055
111.159 0.01670000000000016
111.483 0.15000000000000213
111.805 0.1667000000000023
112.129 0.15000000000000213
112.451 0.13330000000000197
112.775 0.06670000000000087
113.096 0.11670000000000158
113.42 0.05000000000000071
113.744 0.01670000000000016
114.066 0.10000000000000142
114.39 0.11670000000000158
114.711 0.10000000000000142
115.035 0.216700000000003
115.357 0.08330000000000126
115.681 0.08330000000000126
116.004 0.13330000000000197
116.326 0.13330000000000197
116.65 0.1667000000000023
116.971 0.11670000000000158
117.295 0.11670000000000158
117.617 0.11670000000000158
117.94 0.13330000000000197
118.262 0.15000000000000213
118.586 0.11670000000000158
118.907 0.20000000000000284
119.231 0.10000000000000142
119.554 0.20000000000000284
119.876 0.08330000000000126
120.199 0.13330000000000197
120.521 0.15000000000000213
120.845 0.06670000000000087
121.166 0.15000000000000213
121.49 0.1667000000000023
121.811 0.06670000000000087
122.135 0.11670000000000158
122.456 0.13330000000000197
122.78 0.13330000000000197
123.101 0.06670000000000087
123.424 0.10000000000000142
123.746 0.23329999999999984
124.069 0.10000000000000142
124.391 0.10000000000000142
124.714 0.05000000000000071
125.035 0.18330000000000268
125.359 0.08330000000000126
125.68 0.15000000000000213
126.004 0.13330000000000197
126.325 0.18330000000000268
126.648 0.10000000000000142
126.97 0.15000000000000213
127.291 0.23329999999999984
127.614 0.18330000000000268
127.935 0.11670000000000158
128.259 0.1667000000000023
128.58 0.13330000000000197
128.903 0.10000000000000142
129.224 0.18330000000000268
129.548 0.11670000000000158
129.869 0.25
130.192 0.18330000000000268
130.513 0.10000000000000142
130.834 0.08330000000000126
131.158 0.15000000000000213
131.479 0.1667000000000023
131.802 0.15000000000000213
132.123 0.13330000000000197
132.446 0.18330000000000268
132.767 0.20000000000000284
133.09 0.11670000000000158
133.411 0.11670000000000158
133.733 0.15000000000000213
134.056 0.11670000000000158
134.377 0.13330000000000197
134.7 0.13330000000000197
135.021 0.26670000000000016
135.342 0.05000000000000071
135.665 0.06670000000000087
135.986 0.11670000000000158
136.309 0.15000000000000213
136.63 0.11670000000000158
136.951 0.11670000000000158
137.274 0.13330000000000197
137.595 0.13330000000000197
137.918 0.216700000000003
138.238 0.06670000000000087
138.559 0.216700000000003
138.882 0.10000000000000142
139.203 0.08330000000000126
139.526 0.15000000000000213
139.847 0.20000000000000284
140.168 0.15000000000000213
140.491 0.15000000000000213
140.811 0.1667000000000023
141.132 0.18330000000000268
141.455 0.10000000000000142
141.776 0.15000000000000213
142.097 0.15000000000000213
142.419 0.11670000000000158
142.74 0.15000000000000213
143.061 0.03330000000000055
143.384 0.13330000000000197
143.704 0.08330000000000126
144.027 0.03330000000000055
144.348 0.20000000000000284
144.668 0.11670000000000158
144.991 0.13330000000000197
145.312 0.216700000000003
145.632 0.15000000000000213
145.955 0.0
146.276 0.11670000000000158
146.596 0.03330000000000055
146.917 0.25
147.24 0.11670000000000158
147.56 0.06670000000000087
147.881 0.15000000000000213
148.203 0.13330000000000197
148.524 0.11670000000000158
148.844 0.15000000000000213
149.167 0.15000000000000213
149.487 0.1667000000000023
149.808 0.10000000000000142
150.131 0.18330000000000268
150.451 0.15000000000000213
150.771 0.216700000000003
151.092 0.08330000000000126
151.414 0.25
151.735 0.18330000000000268
152.055 0.18330000000000268
152.378 0.06670000000000087
152.698 0.13330000000000197
153.018 0.08330000000000126
153.339 0.18330000000000268
153.661 0.18330000000000268
153.982 0.10000000000000142
154.302 0.11670000000000158
154.622 0.05000000000000071
154.945 0.05000000000000071
155.265 0.06670000000000087
155.585 0.15000000000000213
155.905 0.08330000000000126
156.228 0.18330000000000268
156.548 0.10000000000000142
156.868 0.06670000000000087
157.188 0.13330000000000197
157.511 0.06670000000000087
157.831 0.1667000000000023
158.151 0.15000000000000213
158.471 0.15000000000000213
158.794 0.15000000000000213
159.114 0.1667000000000023
159.434 0.11670000000000158
159.754 0.15000000000000213
160.074 0.20000000000000284
160.396 0.1667000000000023
160.717 0.11670000000000158
161.037 0.08330000000000126
161.357 0.1667000000000023
161.679 0.13330000000000197
161.999 0.11670000000000158
162.319 0.05000000000000071
162.639 0.1667000000000023
162.959 0.08330000000000126
163.281 0.216700000000003
163.601 0.18330000000000268
163.921 0.10000000000000142
164.241 0.1667000000000023
164.561 0.13330000000000197
164.881 0.15000000000000213
165.203 0.26670000000000016
165.523 0.25
165.843 0.08330000000000126
166.163 0.11670000000000158
166.483 0.20000000000000284
166.803 0.23329999999999984
167.125 0.1667000000000023
167.445 0.18330000000000268
167.764 0.1667000000000023
168.084 0.1667000000000023
168.404 0.20000000000000284
168.724 0.11670000000000158
169.046 0.20000000000000284
169.366 0.11670000000000158
169.685 0.1667000000000023
170.005 0.13330000000000197
170.325 0.11670000000000158
170.645 0.1667000000000023
170.964 0.06670000000000087
171.286 0.08330000000000126
171.606 0.10000000000000142
171.926 0.06670000000000087
172.245 0.25
172.565 0.06670000000000087
172.885 0.20000000000000284
173.204 0.28330000000000055
173.524 0.06670000000000087
173.846 0.20000000000000284
174.166 0.15000000000000213
174.485 0.1667000000000023
174.805 0.15000000000000213
175.124 0.26670000000000016
175.444 0.18330000000000268
175.764 0.18330000000000268
176.083 0.18330000000000268
176.403 0.11670000000000158
176.722 0.13330000000000197
177.044 0.28330000000000055
177.363 0.1667000000000023
177.683 0.216700000000003
178.002 0.11670000000000158
178.322 0.11670000000000158
178.641 0.25
178.961 0.03330000000000055
179.28 0.20000000000000284
179.6 0.15000000000000213
179.919 0.05000000000000071
180.239 0.216700000000003
180.558 0.13330000000000197
180.877 0.1667000000000023
181.197 0.18330000000000268
181.516 0.26670000000000016
181.838 0.23329999999999984
182.157 0.15000000000000213
182.476 0.13330000000000197
182.796 0.10000000000000142
183.115 0.11670000000000158
183.434 0.05000000000000071
183.754 0.13330000000000197
184.073 0.13330000000000197
184.392 0.25
184.712 0.20000000000000284
185.031 0.06670000000000087
185.35 0.18330000000000268
185.669 0.18330000000000268
185.989 0.15000000000000213
186.308 0.216700000000003
186.627 0.216700000000003
186.946 0.08330000000000126
187.265 0.1667000000000023
187.585 0.08330000000000126
187.904 0.11670000000000158
188.223 0.1667000000000023
188.542 0.15000000000000213
188.861 0.15000000000000213
189.18 0.25
189.499 0.1667000000000023
189.818 0.11670000000000158
190.138 0.28330000000000055
190.457 0.15000000000000213
190.776 0.1667000000000023
191.095 0.1667000000000023
191.414 0.1667000000000023
191.733 0.13330000000000197
192.052 0.25
192.371 0.08330000000000126
192.69 0.20000000000000284
193.009 0.18330000000000268
193.328 0.10000000000000142
193.647 0.23329999999999984
193.966 0.15000000000000213
194.285 0.1667000000000023
194.602 0.20000000000000284
194.92 0.216700000000003
195.239 0.20000000000000284
195.558 0.13330000000000197
195.877 0.11670000000000158
196.196 0.18330000000000268
196.515 0.23329999999999984
196.834 0.20000000000000284
197.153 0.08330000000000126
197.471 0.216700000000003
197.79 0.13330000000000197
198.109 0.18330000000000268
198.428 0.23329999999999984
198.747 0.15000000000000213
199.065 0.13330000000000197
199.382 0.15000000000000213
199.701 0.1667000000000023
200.02 0.03330000000000055
200.338 0.15000000000000213
200.657 0.28330000000000055
200.976 0.15000000000000213
201.295 0.20000000000000284
201.613 0.1667000000000023
201.932 0.03330000000000055
202.251 0.1667000000000023
202.567 0.06670000000000087
202.886 0.15000000000000213
203.204 0.15000000000000213
203.523 0.18330000000000268
203.842 0.28330000000000055
204.16 0.13330000000000197
204.479 0.20000000000000284
204.797 0.15000000000000213
205.114 0.11670000000000158
205.433 0.18330000000000268
205.751 0.13330000000000197
206.07 0.216700000000003
206.388 0.18330000000000268
206.707 0.15000000000000213
207.025 0.18330000000000268
207.342 0.08330000000000126
207.66 0.1667000000000023
207.979 0.13330000000000197
208.297 0.13330000000000197
208.615 0.216700000000003
208.934 0.1667000000000023
209.25 0.15000000000000213
209.569 0.1667000000000023
209.887 0.20000000000000284
210.205 0.18330000000000268
210.524 0.13330000000000197
210.842 0.23329999999999984
211.158 0.18330000000000268
211.477 0.13330000000000197
211.795 0.13330000000000197
212.113 0.10000000000000142
212.432 0.10000000000000142
212.75 0.1667000000000023
213.066 0.06670000000000087
213.385 0.1667000000000023
213.703 0.15000000000000213
214.021 0.18330000000000268
214.339 0.15000000000000213
214.656 0.25
214.974 0.13330000000000197
215.292 0.15000000000000213
215.61 0.18330000000000268
215.926 0.33330000000000126
216.245 0.10000000000000142
216.563 0.18330000000000268
216.881 0.1667000000000023
217.199 0.216700000000003
217.515 0.3667000000000016
217.833 0.13330000000000197
218.151 0.216700000000003
218.469 0.11670000000000158
218.785 0.20000000000000284
219.104 0.11670000000000158
219.422 0.23329999999999984
219.74 0.18330000000000268
220.056 0.10000000000000142
220.374 0.216700000000003
220.692 0.15000000000000213
221.01 0.25
221.326 0.33330000000000126
221.644 0.1667000000000023
221.962 0.15000000000000213
222.28 0.20000000000000284
222.596 0.216700000000003
222.914 0.11670000000000158
223.232 0.20000000000000284
223.547 0.18330000000000268
223.865 0.18330000000000268
224.183 0.11670000000000158
224.501 0.25
224.817 0.216700000000003
225.135 0.1667000000000023
225.453 0.18330000000000268
225.768 0.216700000000003
226.086 0.3000000000000007
226.404 0.13330000000000197
226.722 0.25
227.038 0.216700000000003
227.355 0.23329999999999984
227.673 0.13330000000000197
227.989 0.11670000000000158
228.307 0.18330000000000268
228.625 0.3000000000000007
228.94 0.216700000000003
229.258 0.1667000000000023
229.576 0.15000000000000213
229.891 0.1667000000000023
230.209 0.15000000000000213
230.527 0.18330000000000268
230.842 0.28330000000000055
231.16 0.26670000000000016
231.478 0.18330000000000268
231.793 0.18330000000000268
232.111 0.26670000000000016
232.428 0.23329999999999984
232.744 0.1667000000000023
233.062 0.18330000000000268
233.379 0.18330000000000268
233.695 0.15000000000000213
234.012 0.25
234.33 0.18330000000000268
234.645 0.20000000000000284
234.963 0.23329999999999984
235.278 0.25
235.596 0.216700000000003
235.913 0.28330000000000055
236.229 0.25
236.546 0.15000000000000213
236.864 0.28330000000000055
237.179 0.25
237.497 0.28330000000000055
237.812 0.3000000000000007
238.129 0.1667000000000023
238.447 0.10000000000000142
238.762 0.216700000000003
239.08 0.23329999999999984
239.395 0.25
239.712 0.31670000000000087
240.03 0.31670000000000087
240.345 0.1667000000000023
240.662 0.18330000000000268
240.978 0.33330000000000126
241.295 0.1667000000000023
241.61 0.216700000000003
241.927 0.26670000000000016
242.245 0.1667000000000023
242.56 0.20000000000000284
242.877 0.216700000000003
243.192 0.23329999999999984
243.51 0.26670000000000016
243.825 0.20000000000000284
244.142 0.216700000000003
244.459 0.25
244.774 0.3667000000000016
245.092 0.11670000000000158
245.407 0.20000000000000284
245.724 0.3000000000000007
246.039 0.1667000000000023
246.356 0.383300000000002
246.671 0.18330000000000268
246.988 0.45000000000000284
247.303 0.216700000000003
247.62 0.18330000000000268
247.938 0.18330000000000268
248.253 0.28330000000000055
248.57 0.26670000000000016
248.885 0.28330000000000055
249.202 0.28330000000000055
249.517 0.1667000000000023
249.834 0.28330000000000055
250.149 0.25
250.466 0.1667000000000023
250.781 0.11670000000000158
251.098 0.25
251.412 0.11670000000000158
251.729 0.20000000000000284
252.044 0.25
252.361 0.25
252.676 0.13330000000000197
252.993 0.1667000000000023
253.308 0.25
253.625 0.25
253.94 0.28330000000000055
254.256 0.25
254.571 0.20000000000000284
254.888 0.23329999999999984
255.203 0.11670000000000158
255.518 0.15000000000000213
255.834 0.3500000000000014
256.149 0.08330000000000126
256.466 0.26670000000000016
256.781 0.15000000000000213
257.097 0.1667000000000023
257.412 0.216700000000003
257.729 0.18330000000000268
258.044 0.28330000000000055
258.36 0.25
258.675 0.20000000000000284
258.99 0.10000000000000142
259.306 0.15000000000000213
259.621 0.11670000000000158
259.938 0.08330000000000126
260.252 0.28330000000000055
260.569 0.11670000000000158
260.883 0.05000000000000071
261.198 0.25
261.515 0.25
261.829 0.26670000000000016
262.146 0.18330000000000268
262.46 0.15000000000000213
262.775 0.216700000000003
263.091 0.23329999999999984
263.406 0.23329999999999984
263.723 0.11670000000000158
264.037 0.10000000000000142
264.354 0.15000000000000213
264.668 0.15000000000000213
264.982 0.18330000000000268
265.299 0.18330000000000268
265.613 0.1667000000000023
265.928 0.26670000000000016
266.244 0.1667000000000023
266.559 0.20000000000000284
266.875 0.25
267.189 0.05000000000000071
267.504 0.18330000000000268
267.82 0.25
268.134 0.15000000000000213
268.449 0.18330000000000268
268.765 0.15000000000000213
269.079 0.25
269.394 0.10000000000000142
269.71 0.216700000000003
270.024 0.15000000000000213
270.341 0.13330000000000197
270.655 0.23329999999999984
270.969 0.25
271.286 0.25
271.6 0.18330000000000268
271.914 0.15000000000000213
272.23 0.10000000000000142
272.544 0.26670000000000016
272.859 0.216700000000003
273.175 0.216700000000003
273.489 0.28330000000000055
273.803 0.25
274.119 0.13330000000000197
274.433 0.33330000000000126
274.747 0.20000000000000284
275.062 0.26670000000000016
275.378 0.25
275.692 0.3000000000000007
276.006 0.26670000000000016
276.322 0.11670000000000158
276.636 0.20000000000000284
276.95 0.28330000000000055
277.266 0.1667000000000023
277.58 0.1667000000000023
277.894 0.10000000000000142
278.208 0.18330000000000268
278.524 0.23329999999999984
278.838 0.28330000000000055
279.152 0.18330000000000268
279.468 0.216700000000003
279.782 0.23329999999999984
280.096 0.18330000000000268
280.41 0.216700000000003
280.726 0.28330000000000055
281.04 0.28330000000000055
281.354 0.25
281.668 0.28330000000000055
281.983 0.28330000000000055
282.297 0.31670000000000087
282.611 0.23329999999999984
282.925 0.23329999999999984
283.241 0.3000000000000007
283.555 0.216700000000003
283.868 0.13330000000000197
284.182 0.31670000000000087
284.498 0.40000000000000213
284.812 0.23329999999999984
285.126 0.25
285.439 0.31670000000000087
285.753 0.23329999999999984
286.069 0.3500000000000014
286.383 0.26670000000000016
286.696 0.31670000000000087
287.01 0.20000000000000284
287.326 0.3000000000000007
287.639 0.28330000000000055
287.953 0.23329999999999984
288.267 0.20000000000000284
288.58 0.3000000000000007
288.896 0.23329999999999984
289.21 0.4167000000000023
289.523 0.1667000000000023
289.837 0.216700000000003
290.15 0.20000000000000284
290.466 0.1667000000000023
290.78 0.216700000000003
291.093 0.216700000000003
291.407 0.28330000000000055
291.72 0.18330000000000268
292.034 0.10000000000000142
292.349 0.26670000000000016
292.663 0.23329999999999984
292.976 0.15000000000000213
293.29 0.216700000000003
293.603 0.23329999999999984
293.917 0.33330000000000126
294.232 0.13330000000000197
294.546 0.26670000000000016
294.859 0.26670000000000016
295.172 0.1667000000000023
295.486 0.26670000000000016
295.799 0.20000000000000284
296.113 0.26670000000000016
296.428 0.23329999999999984
296.741 0.18330000000000268
297.055 0.1667000000000023
297.368 0.15000000000000213
297.681 0.15000000000000213
297.995 0.23329999999999984
298.308 0.25
298.621 0.26670000000000016
298.937 0.18330000000000268
299.25 0.25
299.563 0.23329999999999984
299.876 0.25
300.19 0.20000000000000284
300.503 0.18330000000000268
300.816 0.216700000000003
301.129 0.28330000000000055
301.442 0.10000000000000142
301.756 0.18330000000000268
302.071 0.18330000000000268
302.384 0.26670000000000016
302.697 0.216700000000003
303.01 0.20000000000000284
303.323 0.26670000000000016
303.637 0.216700000000003
303.95 0.25
304.263 0.25
304.576 0.18330000000000268
304.889 0.28330000000000055
305.202 0.15000000000000213
305.515 0.216700000000003
305.828 0.13330000000000197
306.141 0.13330000000000197
306.456 0.3500000000000014
306.769 0.26670000000000016
307.082 0.3000000000000007
307.395 0.216700000000003
307.708 0.18330000000000268
308.021 0.216700000000003
308.334 0.20000000000000284
308.647 0.18330000000000268
308.96 0.216700000000003
309.273 0.1667000000000023
309.586 0.20000000000000284
309.899 0.1667000000000023
310.212 0.216700000000003
310.525 0.1667000000000023
310.838 0.11670000000000158
311.15 0.3667000000000016
311.463 0.13330000000000197
311.776 0.28330000000000055
312.089 0.216700000000003
312.402 0.18330000000000268
312.715 0.18330000000000268
313.027 0.23329999999999984
313.34 0.20000000000000284
313.653 0.28330000000000055
313.966 0.26670000000000016
314.278 0.23329999999999984
314.591 0.20000000000000284
314.904 0.25
315.217 0.216700000000003
315.529 0.18330000000000268
315.842 0.28330000000000055
316.155 0.1667000000000023
316.467 0.26670000000000016
316.78 0.216700000000003
317.093 0.26670000000000016
317.405 0.33330000000000126
317.718 0.20000000000000284
318.031 0.383300000000002
318.343 0.18330000000000268
318.656 0.20000000000000284
318.969 0.25
319.281 0.25
319.592 0.25
319.904 0.216700000000003
320.217 0.28330000000000055
320.529 0.28330000000000055
320.842 0.3000000000000007
321.154 0.25
321.467 0.3000000000000007
321.779 0.23329999999999984
322.092 0.216700000000003
322.404 0.216700000000003
322.717 0.18330000000000268
323.029 0.06670000000000087
323.342 0.3500000000000014
323.654 0.18330000000000268
323.965 0.25
324.277 0.31670000000000087
324.589 0.24502026838739255
324.902 0.24721872507528886
325.214 0.2471207002514184
325.527 0.24382237469849244
325.839 0.24847302896821333
326.151 0.2467559033236384
326.464 0.2493277623503296
326.776 0.23329999999999984
327.086 0.23329999999999984
327.399 0.26670000000000016
327.711 0.25
328.023 0.3667000000000016
328.335 0.1667000000000023
328.648 0.26670000000000016
328.96 0.31670000000000087
329.27 0.3000000000000007
329.582 0.3000000000000007
329.895 0.383300000000002
330.207 0.216700000000003
330.519 0.3000000000000007
330.831 0.3667000000000016
331.143 0.33330000000000126
331.454 0.26670000000000016
331.766 0.28330000000000055
332.078 0.5167000000000002
332.39 0.26670000000000016
332.702 0.383300000000002
333.014 0.3667000000000016
333.326 0.33330000000000126
333.636 0.3500000000000014
333.948 0.383300000000002
334.261 0.31670000000000087
334.573 0.31670000000000087
334.885 0.23329999999999984
335.195 0.25
335.507 0.18330000000000268
335.819 0.26670000000000016
336.131 0.15000000000000213
336.443 0.23329999999999984
336.753 0.4333000000000027
337.065 0.20000000000000284
337.377 0.3000000000000007
337.689 0.20000000000000284
338.001 0.31670000000000087
338.31 0.25
338.622 0.383300000000002
338.934 0.33330000000000126
339.246 0.216700000000003
339.558 0.28330000000000055
339.868 0.40000000000000213
340.18 0.216700000000003
340.492 0.383300000000002
340.804 0.3000000000000007
341.113 0.3187009144703943
341.425 0.32241250717394365
341.737 0.32554884434107123
342.049 0.31476689758405385
342.361 0.31679396423577444
342.67 0.31923337217096304
342.982 0.3266184316658425
343.294 0.28330000000000055
343.606 0.383300000000002
343.915 0.3500000000000014
344.227 0.3500000000000014
344.539 0.33330000000000126
344.849 0.23329999999999984
345.16 0.383300000000002
345.472 0.25
345.784 0.26670000000000016
346.093 0.45000000000000284
346.405 0.33330000000000126
346.717 0.31670000000000087
347.028 0.3667000000000016
347.338 0.31670000000000087
347.649 0.3500000000000014
347.961 0.3000000000000007
348.271 0.25
348.582 0.33330000000000126
348.894 0.23329999999999984
349.205 0.20000000000000284
349.515 0.26670000000000016
349.826 0.26670000000000016
350.138 0.25
350.447 0.3000000000000007
350.759 0.31670000000000087
351.07 0.40000000000000213
351.38 0.3500000000000014
351.691 0.216700000000003
352.003 0.33330000000000126
352.312 0.3000000000000007
352.624 0.28330000000000055
352.935 0.31670000000000087
353.245 0.31670000000000087
353.556 0.26670000000000016
353.867 0.31670000000000087
354.177 0.25
354.488 0.3500000000000014
354.799 0.26670000000000016
355.109 0.3000000000000007
355.42 0.26670000000000016
355.732 0.3667000000000016
356.041 0.18330000000000268
356.352 0.383300000000002
356.663 0.3000000000000007
356.973 0.25
357.284 0.3500000000000014
357.593 0.3500000000000014
357.905 0.31670000000000087
358.216 0.25
358.525 0.1667000000000023
358.836 0.31670000000000087
359.147 0.33330000000000126
359.457 0.3500000000000014
359.768 0.3500000000000014
360.077 0.3000000000000007
360.388 0.3667000000000016
360.699 0.20000000000000284
361.008 0.3000000000000007
361.32 0.25
361.629 0.23329999999999984
361.94 0.45000000000000284
362.251 0.26670000000000016
362.56 0.28330000000000055
362.871 0.23329999999999984
363.18 0.25
363.491 0.10000000000000142
363.8 0.28330000000000055
364.111 0.20000000000000284
364.422 0.26670000000000016
364.731 0.3000000000000007
365.042 0.28330000000000055
365.351 0.216700000000003
365.662 0.20000000000000284
365.971 0.26670000000000016
366.282 0.26670000000000016
366.593 0.3000000000000007
366.902 0.18330000000000268
367.213 0.3500000000000014
367.522 0.25
367.833 0.25
368.142 0.216700000000003
368.453 0.26670000000000016
368.762 0.3000000000000007
369.073 0.31670000000000087
369.381 0.15000000000000213
369.692 0.33330000000000126
370.001 0.25
370.312 0.216700000000003
370.623 0.3000000000000007
370.932 0.4333000000000027
371.242 0.3000000000000007
371.551 0.23329999999999984
371.862 0.23329999999999984
372.171 0.28330000000000055
372.482 0.3000000000000007
372.79 0.1667000000000023
373.101 0.25
373.41 0.1667000000000023
373.721 0.31670000000000087
374.029 0.31670000000000087
374.34 0.28330000000000055
374.649 0.3500000000000014
374.959 0.4167000000000023
375.268 0.31670000000000087
375.577 0.08330000000000126
375.887 0.3500000000000014
376.196 0.18330000000000268
376.506 0.26670000000000016
376.815 0.28330000000000055
377.126 0.33330000000000126
377.434 0.33330000000000126
377.745 0.23329999999999984
378.053 0.3500000000000014
378.364 0.25
378.672 0.25
378.983 0.3000000000000007
379.292 0.20000000000000284
379.6 0.28330000000000055
379.911 0.40000000000000213
380.219 0.3500000000000014
380.53 0.26670000000000016
380.838 0.33330000000000126
381.148 0.28330000000000055
381.457 0.4167000000000023
381.767 0.31670000000000087
382.076 0.31670000000000087
382.384 0.3000000000000007
382.695 0.466700000000003
383.003 0.28330000000000055
383.313 0.33330000000000126
383.622 0.4167000000000023
383.93 0.33330000000000126
384.24 0.3000000000000007
384.549 0.26670000000000016
384.859 0.3500000000000014
385.167 0.40000000000000213
385.476 0.28330000000000055
385.786 0.3500000000000014
386.094 0.23329999999999984
386.405 0.28330000000000055
386.713 0.383300000000002
387.021 0.45000000000000284
387.331 0.31670000000000087
387.64 0.4167000000000023
387.948 0.3500000000000014
388.258 0.33330000000000126
388.566 0.20000000000000284
388.877 0.25
389.185 0.33330000000000126
389.493 0.26670000000000016
389.803 0.48329999999999984
390.111 0.33330000000000126
390.419 0.3000000000000007
390.729 0.48329999999999984
391.038 0.28330000000000055
391.346 0.18330000000000268
391.656 0.216700000000003
391.964 0.383300000000002
392.272 0.26670000000000016
392.582 0.31670000000000087
392.89 0.28330000000000055
393.198 0.383300000000002
393.508 0.216700000000003
393.816 0.33330000000000126
394.124 0.31670000000000087
394.434 0.383300000000002
394.742 0.23329999999999984
395.05 0.3500000000000014
395.36 0.3500000000000014
395.668 0.25
395.976 0.28330000000000055
396.286 0.28330000000000055
396.594 0.4167000000000023
396.902 0.26670000000000016
397.21 0.216700000000003
397.52 0.15000000000000213
397.828 0.40000000000000213
398.135 0.33330000000000126
398.445 0.28330000000000055
398.753 0.40000000000000213
399.061 0.33330000000000126
399.369 0.31670000000000087
399.679 0.216700000000003
399.987 0.23329999999999984
400.294 0.1667000000000023
400.604 0.28330000000000055
400.912 0.28330000000000055
401.22 0.33330000000000126
401.527 0.3500000000000014
401.837 0.383300000000002
402.145 0.3500000000000014
402.453 0.3500000000000014
402.76 0.4333000000000027
403.07 0.45000000000000284
403.378 0.3667000000000016
403.686 0.3500000000000014
403.993 0.4167000000000023
404.303 0.40000000000000213
404.611 0.3500000000000014
404.918 0.383300000000002
405.226 0.3500000000000014
405.533 0.26670000000000016
405.843 0.383300000000002
406.151 0.33330000000000126
406.458 0.40000000000000213
406.766 0.4167000000000023
407.076 0.40000000000000213
407.383 0.5
407.691 0.33330000000000126
407.998 0.4333000000000027
408.306 0.3667000000000016
408.615 0.3667000000000016
408.923 0.48329999999999984
409.23 0.40000000000000213
409.538 0.48329999999999984
409.845 0.3500000000000014
410.153 0.4333000000000027
410.462 0.4333000000000027
410.77 0.6167000000000016
411.077 0.5667000000000009
411.384 0.6167000000000016
411.692 0.6167000000000016
412.001 0.5167000000000002
412.309 0.5167000000000002
412.616 0.6500000000000021
412.923 0.5333000000000006
413.231 0.5167000000000002
413.538 0.5167000000000002
413.845 0.5333000000000006
414.155 0.5833000000000013
414.462 0.5500000000000007
414.769 0.6167000000000016
415.077 0.633300000000002
415.384 0.6500000000000021
415.691 0.7000000000000028
415.999 0.6667000000000023
416.308 0.8000000000000007
416.615 0.633300000000002
416.922 0.966700000000003
417.23 1.0333000000000006
417.537 0.8333000000000013
417.844 0.883300000000002
418.151 1.0167000000000002
418.458 1.1167000000000016
418.768 1.2000000000000028
419.075 1.0333000000000006
419.382 1.3500000000000014
419.689 1.3000000000000007
419.996 1.1833000000000027
420.303 1.216700000000003
420.61 1.1833000000000027
420.918 1.1833000000000027
421.225 1.3667000000000016
421.532 1.4832999999999998
421.841 1.4500000000000028
422.148 1.466700000000003
422.455 1.383300000000002
422.762 1.25
423.069 1.2667000000000002
423.376 1.3667000000000016
423.683 1.3333000000000013
423.99 1.466700000000003
424.297 1.3333000000000013
424.604 1.6167000000000016
424.911 1.383300000000002
425.218 1.2833000000000006
425.525 1.2667000000000002
425.832 1.4333000000000027
426.139 1.1000000000000014
426.446 1.1833000000000027
426.753 1.2000000000000028
427.061 1.133300000000002
427.368 1.2667000000000002
427.675 0.883300000000002
427.982 1.3500000000000014
428.289 1.2833000000000006
428.596 0.8333000000000013
428.903 1.0833000000000013
429.209 0.7833000000000006
429.516 0.8167000000000009
429.823 0.8333000000000013
430.13 0.9333000000000027
430.437 0.9500000000000028
430.743 0.716700000000003
431.05 0.8667000000000016
431.357 0.7000000000000028
431.664 0.716700000000003
431.97 0.716700000000003
432.277 0.7332999999999998
432.584 0.6667000000000023
432.891 0.6833000000000027
433.197 0.8167000000000009
433.504 0.716700000000003
433.811 0.6167000000000016
434.117 0.5333000000000006
434.424 0.7000000000000028
434.731 0.6667000000000023
435.037 0.466700000000003
435.344 0.466700000000003
435.65 0.6000000000000014
435.957 0.5500000000000007
436.262 0.5667000000000009
436.568 0.5667000000000009
436.875 0.45000000000000284
437.181 0.5333000000000006
437.488 0.5833000000000013
437.794 0.466700000000003
438.101 0.466700000000003
438.407 0.48329999999999984
438.714 0.5
439.02 0.5500000000000007
439.327 0.48329999999999984
439.633 0.5833000000000013
439.94 0.5333000000000006
440.246 0.45000000000000284
440.553 0.40000000000000213
440.859 0.5
441.163 0.40000000000000213
441.47 0.383300000000002
441.776 0.5167000000000002
442.083 0.383300000000002
442.389 0.466700000000003
442.695 0.6167000000000016
443.002 0.4167000000000023
443.308 0.4167000000000023
443.614 0.5667000000000009
443.921 0.3667000000000016
444.225 0.4167000000000023
444.531 0.383300000000002
444.838 0.31670000000000087
445.144 0.5333000000000006
445.45 0.45000000000000284
445.757 0.40000000000000213
446.063 0.5
446.369 0.3667000000000016
446.675 0.6500000000000021
446.979 0.5
447.286 0.4167000000000023
447.592 0.48329999999999984
447.898 0.5167000000000002
448.204 0.4333000000000027
448.51 0.40000000000000213
448.817 0.31670000000000087
449.121 0.6500000000000021
449.427 0.45000000000000284
449.733 0.40000000000000213
450.039 0.5
450.345 0.5500000000000007
450.651 0.45000000000000284
450.955 0.383300000000002
451.261 0.4333000000000027
451.568 0.633300000000002
451.874 0.4333000000000027
452.18 0.466700000000003
452.486 0.40000000000000213
452.79 0.466700000000003
453.096 0.466700000000003
453.402 0.5667000000000009
453.708 0.40000000000000213
454.014 0.4333000000000027
454.318 0.28330000000000055
454.624 0.48329999999999984
454.93 0.40000000000000213
455.236 0.48329999999999984
455.541 0.33330000000000126
455.845 0.3667000000000016
456.151 0.3500000000000014
456.457 0.40000000000000213
456.763 0.5
457.067 0.3000000000000007
457.373 0.5167000000000002
457.679 0.28330000000000055
457.985 0.33330000000000126
458.29 0.3667000000000016
458.594 0.383300000000002
458.9 0.383300000000002
459.206 0.31670000000000087
459.512 0.4167000000000023
459.815 0.40000000000000213
460.121 0.45000000000000284
460.427 0.40000000000000213
460.733 0.33330000000000126
461.036 0.466700000000003
461.342 0.28330000000000055
461.648 0.3000000000000007
461.954 0.23329999999999984
462.257 0.4333000000000027
462.563 0.33330000000000126
462.869 0.5
463.172 0.33330000000000126
463.478 0.466700000000003
463.784 0.3000000000000007
464.089 0.5667000000000009
464.393 0.3500000000000014
464.699 0.26670000000000016
465.004 0.383300000000002
465.308 0.3000000000000007
465.613 0.4333000000000027
465.919 0.3000000000000007
466.225 0.48329999999999984
466.528 0.3667000000000016
466.834 0.383300000000002
467.139 0.40000000000000213
467.443 0.33330000000000126
467.748 0.4167000000000023
468.054 0.4333000000000027
468.357 0.33330000000000126
468.663 0.4333000000000027
468.968 0.4333000000000027
469.272 0.3500000000000014
469.577 0.48329999999999984
469.883 0.4167000000000023
470.186 0.45000000000000284
470.492 0.4167000000000023
470.797 0.3667000000000016
471.1 0.6000000000000014
471.406 0.383300000000002
471.711 0.31670000000000087
472.014 0.4167000000000023
472.32 0.28330000000000055
472.625 0.45000000000000284
472.929 0.383300000000002
473.234 0.48329999999999984
473.539 0.466700000000003
473.843 0.5
474.148 0.5667000000000009
474.451 0.48329999999999984
474.756 0.383300000000002
475.062 0.466700000000003
475.365 0.4333000000000027
475.67 0.48329999999999984
475.973 0.5167000000000002
476.279 0.5500000000000007
476.584 0.75
476.887 0.716700000000003
477.192 0.5500000000000007
477.498 0.9500000000000028
477.801 0.7833000000000006
478.106 0.9333000000000027
478.409 0.9167000000000023
478.714 0.8667000000000016
479.017 0.883300000000002
479.322 0.8667000000000016
479.628 1.0667000000000009
479.931 0.9167000000000023
480.236 0.8500000000000014
480.539 0.6833000000000027
480.844 0.9167000000000023
481.147 0.8500000000000014
481.452 0.7667000000000002
481.757 0.9167000000000023
482.06 0.9167000000000023
482.365 1.0500000000000007
482.668 0.8000000000000007
482.973 0.7833000000000006
483.276 0.8000000000000007
483.581 0.6167000000000016
483.884 0.6833000000000027
484.189 0.5500000000000007
484.494 0.6500000000000021
484.797 0.5833000000000013
485.102 0.40000000000000213
485.405 0.6667000000000023
485.71 0.3000000000000007
486.013 0.4333000000000027
486.318 0.31670000000000087
486.621 0.4167000000000023
486.925 0.45000000000000284
487.228 0.31670000000000087
487.533 0.5667000000000009
487.836 0.45000000000000284
488.141 0.3500000000000014
488.444 0.40000000000000213
488.748 0.25
489.051 0.3667000000000016
489.356 0.383300000000002
489.659 0.3500000000000014
489.964 0.466700000000003
490.266 0.33330000000000126
490.571 0.4167000000000023
490.874 0.40000000000000213
491.179 0.28330000000000055
491.481 0.4167000000000023
491.786 0.25
492.089 0.383300000000002
492.393 0.40000000000000213
492.696 0.3667000000000016
493.001 0.3500000000000014
493.303 0.40000000000000213
493.606 0.28330000000000055
493.911 0.383300000000002
494.213 0.28330000000000055
494.518 0.31670000000000087
494.821 0.15000000000000213
495.125 0.48329999999999984
495.428 0.3000000000000007
495.732 0.25
496.035 0.3500000000000014
496.337 0.28330000000000055
496.642 0.33330000000000126
496.945 0.40000000000000213
497.249 0.33330000000000126
497.552 0.383300000000002
497.856 0.23329999999999984
498.159 0.28330000000000055
498.461 0.23329999999999984
498.766 0.4167000000000023
499.068 0.40000000000000213
499.372 0.31670000000000087
499.675 0.28330000000000055
499.977 0.3000000000000007
500.282 0.3000000000000007
500.584 0.383300000000002
500.889 0.28330000000000055
501.191 0.45000000000000284
501.493 0.25
501.798 0.31670000000000087
502.1 0.28330000000000055
502.402 0.31670000000000087
502.707 0.1667000000000023
503.009 0.40000000000000213
503.314 0.3500000000000014
503.616 0.3500000000000014
503.918 0.33330000000000126
504.222 0.3500000000000014
504.525 0.25
504.827 0.31670000000000087
505.131 0.4167000000000023
505.433 0.31670000000000087
505.736 0.5
506.04 0.3000000000000007
506.342 0.4167000000000023
506.646 0.25
506.949 0.4167000000000023
507.251 0.4333000000000027
507.555 0.20000000000000284
507.857 0.383300000000002
508.159 0.216700000000003
508.461 0.3667000000000016
508.766 0.3667000000000016
509.068 0.28330000000000055
509.37 0.383300000000002
509.674 0.3500000000000014
509.976 0.25
510.278 0.31670000000000087
510.582 0.216700000000003
510.884 0.216700000000003
511.186 0.3000000000000007
511.49 0.383300000000002
511.792 0.383300000000002
512.094 0.3500000000000014
512.396 0.26670000000000016
512.701 0.25
513.003 0.40000000000000213
513.305 0.40000000000000213
513.609 0.18330000000000268
513.91 0.216700000000003
514.212 0.31670000000000087
514.514 0.40000000000000213
514.818 0.18330000000000268
515.12 0.3000000000000007
515.422 0.28330000000000055
515.724 0.3500000000000014
516.028 0.31670000000000087
516.33 0.20000000000000284
516.632 0.25
516.934 0.383300000000002
517.237 0.31670000000000087
517.539 0.25
517.841 0.31670000000000087
518.143 0.26670000000000016
518.447 0.45000000000000284
518.749 0.23329999999999984
519.05 0.383300000000002
519.352 0.40000000000000213
519.656 0.4333000000000027
519.958 0.3667000000000016
520.26 0.3500000000000014
520.561 0.23329999999999984
520.863 0.25
521.167 0.40000000000000213
521.468 0.383300000000002
521.77 0.25
522.072 0.4167000000000023
522.376 0.3667000000000016
522.677 0.3667000000000016
522.979 0.28330000000000055
523.281 0.466700000000003
523.582 0.3667000000000016
523.884 0.383300000000002
524.187 0.20000000000000284
524.489 0.3000000000000007
524.791 0.466700000000003
525.092 0.3667000000000016
525.394 0.33330000000000126
525.697 0.3500000000000014
525.999 0.3000000000000007
526.301 0.28330000000000055
526.602 0.45000000000000284
526.904 0.383300000000002
527.205 0.4167000000000023
527.507 0.23329999999999984
527.81 0.23329999999999984
528.112 0.4167000000000023
528.413 0.25
528.715 0.33330000000000126
529.016 0.40000000000000213
529.318 0.33330000000000126
529.619 0.3000000000000007
529.922 0.383300000000002
530.224 0.3000000000000007
530.525 0.33330000000000126
530.827 0.23329999999999984
531.128 0.3667000000000016
531.429 0.31670000000000087
531.731 0.40000000000000213
532.032 0.23329999999999984
532.336 0.23329999999999984
532.637 0.26670000000000016
532.938 0.25
533.24 0.48329999999999984
533.541 0.33330000000000126
533.842 0.4333000000000027
534.143 0.3667000000000016
534.445 0.383300000000002
534.746 0.28330000000000055
535.047 0.33330000000000126
535.351 0.1667000000000023
535.652 0.23329999999999984
535.953 0.25
536.254 0.383300000000002
536.555 0.33330000000000126
536.857 0.4167000000000023
537.158 0.383300000000002
537.459 0.20000000000000284
537.76 0.40000000000000213
538.061 0.40000000000000213
538.362 0.31670000000000087
538.664 0.4333000000000027
538.965 0.33330000000000126
539.266 0.5
539.567 0.26670000000000016
539.868 0.3000000000000007
540.169 0.3500000000000014
540.472 0.28330000000000055
540.773 0.383300000000002
541.074 0.383300000000002
541.375 0.3500000000000014
541.677 0.48329999999999984
541.978 0.4167000000000023
542.279 0.3667000000000016
542.58 0.216700000000003
542.881 0.4333000000000027
543.182 0.4167000000000023
543.483 0.31670000000000087
543.784 0.33330000000000126
544.085 0.4167000000000023
544.385 0.28330000000000055
544.686 0.383300000000002
544.987 0.3500000000000014
545.288 0.3000000000000007
545.589 0.3500000000000014
545.89 0.31670000000000087
546.191 0.3500000000000014
546.492 0.3667000000000016
546.793 0.466700000000003
547.094 0.3667000000000016
547.394 0.466700000000003
547.695 0.40000000000000213
547.996 0.28330000000000055
548.297 0.466700000000003
548.596 0.5833000000000013
548.897 0.5167000000000002
549.197 0.40000000000000213
549.498 0.3667000000000016
549.799 0.466700000000003
550.1 0.3000000000000007
550.4 0.4333000000000027
550.701 0.5
551.002 0.5500000000000007
551.303 0.48329999999999984
551.603 0.6000000000000014
551.904 0.5500000000000007
552.205 0.4333000000000027
552.505 0.383300000000002
552.806 0.6167000000000016
553.107 0.5833000000000013
553.407 0.6167000000000016
553.706 0.5833000000000013
554.007 0.48329999999999984
554.307 0.6167000000000016
554.608 0.6167000000000016
554.909 0.5667000000000009
555.209 0.5833000000000013
555.51 0.633300000000002
555.81 0.6167000000000016
556.111 0.5
556.411 0.6500000000000021
556.71 0.6000000000000014
557.01 0.45000000000000284
557.311 0.633300000000002
557.612 0.5667000000000009
557.912 0.5
558.213 0.466700000000003
558.513 0.40000000000000213
558.813 0.5167000000000002
559.112 0.383300000000002
559.412 0.6500000000000021
559.713 0.4167000000000023
560.013 0.45000000000000284
560.314 0.466700000000003
560.614 0.3667000000000016
560.914 0.4333000000000027
561.213 0.31670000000000087
561.513 0.48329999999999984
561.814 0.5333000000000006
562.114 0.4167000000000023
562.414 0.3000000000000007
562.715 0.28330000000000055
563.015 0.48329999999999984
563.313 0.5167000000000002
563.614 0.3000000000000007
563.914 0.4167000000000023
564.214 0.216700000000003
564.515 0.4333000000000027
564.813 0.28330000000000055
565.113 0.4167000000000023
565.413 0.466700000000003
565.714 0.45000000000000284
566.014 0.31670000000000087
566.312 0.1667000000000023
566.612 0.3667000000000016
566.912 0.383300000000002
567.213 0.3667000000000016
567.513 0.3667000000000016
567.811 0.383300000000002
568.111 0.26670000000000016
568.411 0.3000000000000007
568.712 0.28330000000000055
569.012 0.4333000000000027
569.31 0.383300000000002
569.61 0.3667000000000016
569.91 0.3000000000000007
570.21 0.28330000000000055
570.508 0.26670000000000016
570.808 0.25
571.108 0.28330000000000055
571.408 0.45000000000000284
571.706 0.23329999999999984
572.006 0.20000000000000284
572.306 0.3000000000000007
572.607 0.23329999999999984
572.904 0.45000000000000284
573.204 0.383300000000002
573.505 0.25
573.805 0.3000000000000007
574.102 0.20000000000000284
574.402 0.216700000000003
574.702 0.3000000000000007
575.002 0.3500000000000014
575.3 0.33330000000000126
575.6 0.40000000000000213
575.9 0.3667000000000016
576.198 0.23329999999999984
576.498 0.28330000000000055
576.798 0.33330000000000126
577.098 0.40000000000000213
577.395 0.3667000000000016
577.695 0.216700000000003
577.995 0.25
578.293 0.3000000000000007
578.593 0.3000000000000007
578.893 0.3000000000000007
579.19 0.4167000000000023
579.49 0.31670000000000087
579.79 0.3000000000000007
580.088 0.3500000000000014
580.387 0.4333000000000027
580.687 0.4167000000000023
580.985 0.3000000000000007
581.285 0.3667000000000016
581.584 0.18330000000000268
581.882 0.3500000000000014
582.182 0.28330000000000055
582.482 0.25
582.779 0.33330000000000126
583.079 0.33330000000000126
583.378 0.3500000000000014
583.676 0.31670000000000087
583.976 0.26670000000000016
584.275 0.4167000000000023
584.573 0.31670000000000087
584.873 0.383300000000002
585.17 0.383300000000002
585.47 0.33330000000000126
585.769 0.3000000000000007
586.067 0.4167000000000023
586.367 0.3500000000000014
586.666 0.31670000000000087
586.964 0.3000000000000007
587.263 0.31670000000000087
587.561 0.33330000000000126
587.86 0.5500000000000007
588.16 0.1667000000000023
588.457 0.3500000000000014
588.757 0.3000000000000007
589.054 0.31670000000000087
589.354 0.383300000000002
589.653 0.4167000000000023
589.951 0.28330000000000055
590.25 0.23329999999999984
590.547 0.45000000000000284
590.847 0.3667000000000016
591.144 0.1667000000000023
591.444 0.28330000000000055
591.743 0.25
592.04 0.40000000000000213
592.34 0.383300000000002
592.637 0.20000000000000284
592.936 0.3667000000000016
593.234 0.4167000000000023
593.533 0.5
593.832 0.3667000000000016
594.13 0.3000000000000007
594.429 0.3667000000000016
594.726 0.26670000000000016
595.026 0.28330000000000055
595.323 0.31670000000000087
595.622 0.383300000000002
595.919 0.26670000000000016
596.219 0.28330000000000055
596.516 0.25
596.815 0.31670000000000087
597.112 0.28330000000000055
597.411 0.33330000000000126
597.709 0.3500000000000014
598.008 0.4167000000000023
598.305 0.40000000000000213
598.604 0.5333000000000006
598.901 0.31670000000000087
599.2 0.25
599.497 0.3500000000000014
599.797 0.33330000000000126
600.094 0.3500000000000014
600.393 0.3500000000000014
600.69 0.25
600.989 0.4167000000000023
601.286 0.31670000000000087
601.585 0.4333000000000027
601.882 0.4167000000000023
602.181 0.383300000000002
602.478 0.3000000000000007
602.777 0.3000000000000007
603.074 0.40000000000000213
603.373 0.4333000000000027
603.67 0.31670000000000087
603.969 0.383300000000002
604.266 0.466700000000003
604.563 0.26670000000000016
604.862 0.3000000000000007
605.159 0.4333000000000027
605.458 0.3667000000000016
605.755 0.45000000000000284
606.054 0.3000000000000007
606.351 0.45000000000000284
606.65 0.31670000000000087
606.946 0.4167000000000023
607.243 0.40000000000000213
607.542 0.4333000000000027
607.839 0.40000000000000213
608.138 0.3667000000000016
608.435 0.5333000000000006
608.732 0.48329999999999984
609.03 0.4167000000000023
609.327 0.40000000000000213
609.626 0.31670000000000087
609.923 0.5667000000000009
610.22 0.3667000000000016
610.518 0.45000000000000284
610.815 0.466700000000003
611.114 0.5167000000000002
611.411 0.5333000000000006
611.707 0.5
612.006 0.466700000000003
612.303 0.5167000000000002
612.601 0.48329999999999984
612.898 0.48329999999999984
613.195 0.5500000000000007
613.493 0.3500000000000014
613.79 0.5833000000000013
614.087 0.6000000000000014
614.385 0.45000000000000284
614.682 0.5333000000000006
614.979 0.4167000000000023
615.277 0.5
615.574 0.4167000000000023
615.87 0.6500000000000021
616.169 0.3667000000000016
616.466 0.5167000000000002
616.764 0.466700000000003
617.061 0.25
617.357 0.4333000000000027
617.656 0.3500000000000014
617.952 0.33330000000000126
618.249 0.466700000000003
618.545 0.33330000000000126
618.844 0.383300000000002
619.14 0.48329999999999984
619.437 0.466700000000003
619.735 0.3500000000000014
620.032 0.3500000000000014
620.328 0.40000000000000213
620.626 0.18330000000000268
620.923 0.26670000000000016
621.219 0.3500000000000014
621.518 0.466700000000003
621.814 0.4167000000000023
622.11 0.25
622.407 0.45000000000000284
622.705 0.33330000000000126
623.002 0.26670000000000016
623.298 0.40000000000000213
623.594 0.216700000000003
623.893 0.4333000000000027
624.189 0.4167000000000023
624.485 0.383300000000002
624.784 0.4167000000000023
625.08 0.31670000000000087
625.376 0.3500000000000014
625.672 0.23329999999999984
625.971 0.383300000000002
626.267 0.33330000000000126
626.563 0.25
626.859 0.40000000000000213
627.158 0.23329999999999984
627.454 0.33330000000000126
627.75 0.45000000000000284
628.046 0.3000000000000007
628.342 0.28330000000000055
628.641 0.26670000000000016
628.937 0.3000000000000007
629.233 0.466700000000003
629.529 0.31670000000000087
629.827 0.3667000000000016
630.123 0.383300000000002
630.419 0.383300000000002
630.715 0.4167000000000023
631.011 0.28330000000000055
631.31 0.33330000000000126
631.606 0.383300000000002
631.902 0.4333000000000027
632.198 0.3500000000000014
632.494 0.40000000000000213
632.792 0.33330000000000126
633.088 0.31670000000000087
633.384 0.25
633.68 0.4333000000000027
633.976 0.3500000000000014
634.272 0.40000000000000213
634.57 0.3000000000000007
634.866 0.3667000000000016
635.162 0.25
635.458 0.3000000000000007
635.754 0.3000000000000007
636.05 0.3000000000000007
636.347 0.3667000000000016
636.643 0.3000000000000007
636.939 0.28330000000000055
637.235 0.466700000000003
637.531 0.4167000000000023
637.827 0.4167000000000023
638.123 0.33330000000000126
638.421 0.3000000000000007
638.716 0.5167000000000002
639.012 0.3000000000000007
639.308 0.466700000000003
639.604 0.26670000000000016
639.9 0.31670000000000087
640.195 0.31670000000000087
640.491 0.383300000000002
640.789 0.3500000000000014
641.085 0.31670000000000087
641.381 0.3000000000000007
641.676 0.4333000000000027
641.972 0.20000000000000284
642.268 0.5167000000000002
642.563 0.26670000000000016
642.859 0.5667000000000009
643.155 0.31670000000000087
643.451 0.40000000000000213
643.746 0.466700000000003
644.044 0.3500000000000014
644.34 0.25
644.635 0.33330000000000126
644.931 0.26670000000000016
645.227 0.45000000000000284
645.522 0.26670000000000016
645.818 0.4333000000000027
646.113 0.31670000000000087
646.409 0.26670000000000016
646.704 0.31670000000000087
647.0 0.383300000000002
647.296 0.4333000000000027
647.591 0.20000000000000284
647.887 0.4333000000000027
648.182 0.3667000000000016
648.478 0.3500000000000014
648.773 0.466700000000003
649.069 0.4333000000000027
649.366 0.3500000000000014
649.662 0.48329999999999984
649.957 0.3500000000000014
650.253 0.383300000000002
650.548 0.383300000000002
650.844 0.31670000000000087
651.139 0.4167000000000023
651.434 0.25
651.73 0.3500000000000014
652.025 0.3000000000000007
652.321 0.40000000000000213
652.616 0.3500000000000014
652.911 0.3500000000000014
653.207 0.45000000000000284
653.502 0.5167000000000002
653.797 0.31670000000000087
654.093 0.4333000000000027
654.388 0.3500000000000014
654.683 0.5167000000000002
654.979 0.4167000000000023
655.274 0.5167000000000002
655.567 0.633300000000002
655.863 0.5500000000000007
656.158 0.5333000000000006
656.453 0.6000000000000014
656.748 0.6000000000000014
657.044 0.5500000000000007
657.339 0.7000000000000028
657.634 0.5667000000000009
657.929 0.7332999999999998
658.224 0.6396616258794339
658.52 0.6512046200482935
658.815 0.6493637078349508
659.11 0.6498787977607563
659.405 0.6500725837642563
659.7 0.6434809984054048
659.995 0.6473462407417792
660.291 0.5333000000000006
660.586 0.7332999999999998
660.879 0.6167000000000016
661.174 0.7000000000000028
661.469 0.6833000000000027
661.764 0.6167000000000016
662.059 0.6833000000000027
662.354 0.6500000000000021
662.649 0.5667000000000009
662.944 0.6000000000000014
663.239 0.5167000000000002
663.534 0.5
663.83 0.5667000000000009
664.122 0.5333000000000006
664.417 0.466700000000003
664.713 0.5500000000000007
665.008 0.716700000000003
665.302 0.5333000000000006
665.597 0.5167000000000002
665.892 0.40000000000000213
666.187 0.5167000000000002
666.48 0.633300000000002
666.775 0.3667000000000016
667.07 0.48329999999999984
667.365 0.48329999999999984
667.66 0.4333000000000027
667.955 0.4167000000000023
668.25 0.3500000000000014
668.542 0.3667000000000016
668.837 0.4333000000000027
669.132 0.31670000000000087
669.427 0.5167000000000002
669.722 0.3000000000000007
670.017 0.4333000000000027
670.31 0.5167000000000002
670.604 0.5167000000000002
670.899 0.383300000000002
671.194 0.33330000000000126
671.489 0.5500000000000007
671.783 0.3500000000000014
672.076 0.31670000000000087
672.371 0.5
672.666 0.31670000000000087
672.96 0.3000000000000007
673.255 0.45000000000000284
673.548 0.33330000000000126
673.842 0.45000000000000284
674.137 0.33330000000000126
674.432 0.45000000000000284
674.727 0.383300000000002
675.019 0.3000000000000007
675.314 0.31670000000000087
675.608 0.3000000000000007
675.903 0.383300000000002
676.196 0.25
676.49 0.31670000000000087
676.785 0.3000000000000007
677.079 0.28330000000000055
677.374 0.45000000000000284
677.667 0.4167000000000023
677.961 0.3500000000000014
678.256 0.33330000000000126
678.55 0.4167000000000023
678.843 0.33330000000000126
679.137 0.33330000000000126
679.432 0.26670000000000016
679.726 0.45000000000000284
680.019 0.3667000000000016
680.313 0.4167000000000023
680.608 0.3667000000000016
680.902 0.23329999999999984
681.195 0.3500000000000014
681.489 0.25
681.784 0.3667000000000016
682.076 0.23329999999999984
682.37 0.3667000000000016
682.665 0.45000000000000284
682.959 0.40000000000000213
683.252 0.26670000000000016
683.546 0.33330000000000126
683.84 0.4167000000000023
684.133 0.26670000000000016
684.427 0.3667000000000016
684.721 0.4167000000000023
685.014 0.15000000000000213
685.308 0.383300000000002
685.602 0.33330000000000126
685.895 0.4167000000000023
686.189 0.28330000000000055
686.483 0.3667000000000016
686.778 0.3500000000000014
687.07 0.216700000000003
687.364 0.4333000000000027
687.658 0.28330000000000055
687.951 0.3000000000000007
688.245 0.3667000000000016
688.537 0.31670000000000087
688.831 0.40000000000000213
689.125 0.3500000000000014
689.418 0.26670000000000016
689.712 0.4167000000000023
690.006 0.3500000000000014
690.298 0.4333000000000027
690.592 0.3667000000000016
690.886 0.18330000000000268
691.178 0.4167000000000023
691.473 0.25
691.767 0.33330000000000126
692.059 0.45000000000000284
692.353 0.3500000000000014
692.645 0.26670000000000016
692.939 0.31670000000000087
693.233 0.33330000000000126
693.525 0.40000000000000213
693.819 0.3667000000000016
694.111 0.40000000000000213
694.405 0.31670000000000087
694.699 0.40000000000000213
694.991 0.3667000000000016
695.285 0.466700000000003
695.577 0.383300000000002
695.871 0.25
696.165 0.23329999999999984
696.457 0.26670000000000016
696.751 0.15000000000000213
697.043 0.3500000000000014
697.337 0.31670000000000087
697.629 0.40000000000000213
697.923 0.25
698.217 0.33330000000000126
698.509 0.33330000000000126
698.802 0.31670000000000087
699.094 0.3000000000000007
699.388 0.45000000000000284
699.68 0.216700000000003
699.974 0.4167000000000023
700.266 0.216700000000003
700.56 0.28330000000000055
700.853 0.3000000000000007
701.145 0.45000000000000284
701.439 0.3500000000000014
701.731 0.28330000000000055
702.025 0.3667000000000016
702.316 0.26670000000000016
702.61 0.28330000000000055
702.902 0.466700000000003
703.196 0.33330000000000126
703.487 0.3500000000000014
703.781 0.26670000000000016
704.073 0.216700000000003
704.367 0.3667000000000016
704.658 0.3000000000000007
704.952 0.26670000000000016
705.244 0.26670000000000016
705.537 0.3667000000000016
705.829 0.33330000000000126
706.122 0.18330000000000268
706.414 0.466700000000003
706.708 0.3500000000000014
706.999 0.28330000000000055
707.293 0.28330000000000055
