# Created: 2019-11-28 13:05:38.028882
# rshift intensity
76.1738 0.15000000000000213
76.4989 0.18330000000000268
76.824 0.28330000000000055
77.1491 0.10000000000000142
77.4721 0.18330000000000268
77.7972 0.1667000000000023
78.1223 0.18330000000000268
78.4474 0.23329999999999984
78.7724 0.03330000000000055
79.0975 0.18330000000000268
79.4204 0.1667000000000023
79.7454 0.08330000000000126
80.0704 0.25
80.3954 0.216700000000003
80.7204 0.10000000000000142
81.0454 0.06670000000000087
81.3682 0.13330000000000197
81.6931 0.05000000000000071
82.0181 0.216700000000003
82.343 0.13330000000000197
82.6679 0.0
82.9907 0.25
83.3156 0.23329999999999984
83.6405 0.08330000000000126
83.9654 0.20000000000000284
84.2903 0.11670000000000158
84.613 0.20000000000000284
84.9378 0.1667000000000023
85.2626 0.20000000000000284
85.5875 0.11670000000000158
85.9101 0.1667000000000023
86.2349 0.31670000000000087
86.5597 0.10000000000000142
86.8845 0.11670000000000158
87.2093 0.18330000000000268
87.5319 0.06670000000000087
87.8566 0.10000000000000142
88.1814 0.15000000000000213
88.5061 0.08330000000000126
88.8286 0.18330000000000268
89.1533 0.11670000000000158
89.478 0.18330000000000268
89.8027 0.08330000000000126
90.1252 0.13330000000000197
90.4499 0.08330000000000126
90.7745 0.26670000000000016
91.0992 0.20000000000000284
91.4216 0.13330000000000197
91.7462 0.11670000000000158
92.0708 0.25
92.3954 0.06670000000000087
92.7179 0.18330000000000268
93.0424 0.13330000000000197
93.367 0.11670000000000158
93.6915 0.13330000000000197
94.0139 0.15000000000000213
94.3384 0.18330000000000268
94.6629 0.15000000000000213
94.9853 0.26670000000000016
95.3098 0.11670000000000158
95.6342 0.05000000000000071
95.9587 0.26670000000000016
96.281 0.08330000000000126
96.6055 0.25
96.9299 0.1667000000000023
97.2522 0.18330000000000268
97.5766 0.11670000000000158
97.901 0.20000000000000284
98.2232 0.11670000000000158
98.5476 0.216700000000003
98.8719 0.15000000000000213
99.1942 0.10000000000000142
99.5185 0.1667000000000023
99.8428 0.13330000000000197
100.165 0.18330000000000268
100.489 0.1667000000000023
100.814 0.28330000000000055
101.136 0.11670000000000158
101.46 0.216700000000003
101.784 0.216700000000003
102.106 0.1667000000000023
102.431 0.216700000000003
102.755 0.25
103.077 0.216700000000003
103.401 0.15000000000000213
103.725 0.11670000000000158
104.047 0.1667000000000023
104.372 0.10000000000000142
104.696 0.1667000000000023
105.018 0.216700000000003
105.342 0.15000000000000213
105.666 0.3000000000000007
105.988 0.28330000000000055
106.312 0.20000000000000284
106.634 0.13330000000000197
106.958 0.28330000000000055
107.282 0.1667000000000023
107.604 0.1667000000000023
107.928 0.1667000000000023
108.252 0.216700000000003
108.574 0.13330000000000197
108.898 0.216700000000003
109.22 0.20000000000000284
109.544 0.20000000000000284
109.868 0.15000000000000213
110.19 0.13330000000000197
110.514 0.23329999999999984
110.836 0.1667000000000023
111.159 0.1667000000000023
111.483 0.1667000000000023
111.805 0.20000000000000284
112.129 0.216700000000003
112.451 0.03330000000000055
112.775 0.216700000000003
113.096 0.18330000000000268
113.42 0.15000000000000213
113.744 0.23329999999999984
114.066 0.18330000000000268
114.39 0.216700000000003
114.711 0.1667000000000023
115.035 0.216700000000003
115.357 0.05000000000000071
115.681 0.20000000000000284
116.004 0.3000000000000007
116.326 0.13330000000000197
116.65 0.25
116.971 0.15000000000000213
117.295 0.1667000000000023
117.617 0.15000000000000213
117.94 0.25
118.262 0.18330000000000268
118.586 0.10000000000000142
118.907 0.18330000000000268
119.231 0.26670000000000016
119.554 0.18330000000000268
119.876 0.1667000000000023
120.199 0.15000000000000213
120.521 0.18330000000000268
120.845 0.11670000000000158
121.166 0.11670000000000158
121.49 0.13330000000000197
121.811 0.25
122.135 0.15000000000000213
122.456 0.3000000000000007
122.78 0.26670000000000016
123.101 0.10000000000000142
123.424 0.20000000000000284
123.746 0.31670000000000087
124.069 0.3000000000000007
124.391 0.20000000000000284
124.714 0.13330000000000197
125.035 0.25
125.359 0.1667000000000023
125.68 0.216700000000003
126.004 0.20000000000000284
126.325 0.15000000000000213
126.648 0.28330000000000055
126.97 0.13330000000000197
127.291 0.33330000000000126
127.614 0.11670000000000158
127.935 0.1667000000000023
128.259 0.26670000000000016
128.58 0.3000000000000007
128.903 0.18330000000000268
129.224 0.15000000000000213
129.548 0.20000000000000284
129.869 0.216700000000003
130.192 0.10000000000000142
130.513 0.1667000000000023
130.834 0.20000000000000284
131.158 0.26670000000000016
131.479 0.18330000000000268
131.802 0.28330000000000055
132.123 0.25
132.446 0.15000000000000213
132.767 0.3500000000000014
133.09 0.28330000000000055
133.411 0.11670000000000158
133.733 0.13330000000000197
134.056 0.15000000000000213
134.377 0.28330000000000055
134.7 0.216700000000003
135.021 0.15000000000000213
135.342 0.216700000000003
135.665 0.11670000000000158
135.986 0.15000000000000213
136.309 0.28330000000000055
136.63 0.1667000000000023
136.951 0.25
137.274 0.11670000000000158
137.595 0.216700000000003
137.918 0.18330000000000268
138.238 0.18330000000000268
138.559 0.25
138.882 0.13330000000000197
139.203 0.26670000000000016
139.526 0.13330000000000197
139.847 0.15000000000000213
140.168 0.15000000000000213
140.491 0.23329999999999984
140.811 0.18330000000000268
141.132 0.26670000000000016
141.455 0.18330000000000268
141.776 0.25
142.097 0.23329999999999984
142.419 0.20000000000000284
142.74 0.3667000000000016
143.061 0.22098383209464245
143.384 0.27672118643180355
143.704 0.24946267467951344
144.027 0.24054666525165658
144.348 0.2462866440976228
144.668 0.24990168302760196
144.991 0.23382988285179707
145.312 0.24439529173307406
145.632 0.25
145.955 0.08330000000000126
146.276 0.18330000000000268
146.596 0.23329999999999984
146.917 0.10000000000000142
147.24 0.18330000000000268
147.56 0.13330000000000197
147.881 0.18330000000000268
148.203 0.25
148.524 0.1667000000000023
148.844 0.15000000000000213
149.167 0.18330000000000268
149.487 0.20000000000000284
149.808 0.216700000000003
150.131 0.15000000000000213
150.451 0.28330000000000055
150.771 0.08330000000000126
151.092 0.25
151.414 0.216700000000003
151.735 0.23329999999999984
152.055 0.18330000000000268
152.378 0.216700000000003
152.698 0.18330000000000268
153.018 0.15000000000000213
153.339 0.15000000000000213
153.661 0.26670000000000016
153.982 0.1667000000000023
154.302 0.3000000000000007
154.622 0.1667000000000023
154.945 0.1667000000000023
155.265 0.20000000000000284
155.585 0.216700000000003
155.905 0.26670000000000016
156.228 0.15000000000000213
156.548 0.25
156.868 0.3000000000000007
157.188 0.1667000000000023
157.511 0.28330000000000055
157.831 0.13330000000000197
158.151 0.18330000000000268
158.471 0.15000000000000213
158.794 0.3000000000000007
159.114 0.216700000000003
159.434 0.26670000000000016
159.754 0.10000000000000142
160.074 0.216700000000003
160.396 0.11670000000000158
160.717 0.216700000000003
161.037 0.1667000000000023
161.357 0.31670000000000087
161.679 0.383300000000002
161.999 0.18330000000000268
162.319 0.25
162.639 0.23329999999999984
162.959 0.20000000000000284
163.281 0.23329999999999984
163.601 0.23329999999999984
163.921 0.11670000000000158
164.241 0.18330000000000268
164.561 0.06670000000000087
164.881 0.18330000000000268
165.203 0.25
165.523 0.216700000000003
165.843 0.1667000000000023
166.163 0.23329999999999984
166.483 0.3000000000000007
166.803 0.1667000000000023
167.125 0.3500000000000014
167.445 0.20000000000000284
167.764 0.01670000000000016
168.084 0.26670000000000016
168.404 0.23329999999999984
168.724 0.28330000000000055
169.046 0.10000000000000142
169.366 0.31670000000000087
169.685 0.23329999999999984
170.005 0.10000000000000142
170.325 0.13330000000000197
170.645 0.33330000000000126
170.964 0.1667000000000023
171.286 0.216700000000003
171.606 0.18330000000000268
171.926 0.1667000000000023
172.245 0.1667000000000023
172.565 0.216700000000003
172.885 0.25
173.204 0.13330000000000197
173.524 0.26670000000000016
173.846 0.26670000000000016
174.166 0.18330000000000268
174.485 0.06670000000000087
174.805 0.20000000000000284
175.124 0.18330000000000268
175.444 0.216700000000003
175.764 0.31670000000000087
176.083 0.1667000000000023
176.403 0.15000000000000213
176.722 0.23329999999999984
177.044 0.11670000000000158
177.363 0.23329999999999984
177.683 0.15000000000000213
178.002 0.18330000000000268
178.322 0.23329999999999984
178.641 0.20000000000000284
178.961 0.13330000000000197
179.28 0.18330000000000268
179.6 0.11670000000000158
179.919 0.25
180.239 0.15000000000000213
180.558 0.1667000000000023
180.877 0.18330000000000268
181.197 0.1667000000000023
181.516 0.13330000000000197
181.838 0.3000000000000007
182.157 0.23329999999999984
182.476 0.18330000000000268
182.796 0.11670000000000158
183.115 0.20000000000000284
183.434 0.15000000000000213
183.754 0.18330000000000268
184.073 0.1667000000000023
184.392 0.216700000000003
184.712 0.18330000000000268
185.031 0.23329999999999984
185.35 0.26670000000000016
185.669 0.11670000000000158
185.989 0.15000000000000213
186.308 0.216700000000003
186.627 0.23329999999999984
186.946 0.13330000000000197
187.265 0.33330000000000126
187.585 0.25
187.904 0.08330000000000126
188.223 0.05000000000000071
188.542 0.20000000000000284
188.861 0.3000000000000007
189.18 0.1667000000000023
189.499 0.216700000000003
189.818 0.20000000000000284
190.138 0.26670000000000016
190.457 0.13330000000000197
190.776 0.20000000000000284
191.095 0.31670000000000087
191.414 0.15000000000000213
191.733 0.28330000000000055
192.052 0.1667000000000023
192.371 0.13330000000000197
192.69 0.1667000000000023
193.009 0.15000000000000213
193.328 0.26670000000000016
193.647 0.11670000000000158
193.966 0.23329999999999984
194.285 0.26670000000000016
194.602 0.11670000000000158
194.92 0.18330000000000268
195.239 0.13330000000000197
195.558 0.13330000000000197
195.877 0.06670000000000087
196.196 0.18330000000000268
196.515 0.216700000000003
196.834 0.18330000000000268
197.153 0.11670000000000158
197.471 0.26670000000000016
197.79 0.28330000000000055
198.109 0.18330000000000268
198.428 0.20000000000000284
198.747 0.216700000000003
199.065 0.26670000000000016
199.382 0.26670000000000016
199.701 0.18330000000000268
200.02 0.23329999999999984
200.338 0.18330000000000268
200.657 0.13330000000000197
200.976 0.20000000000000284
201.295 0.3000000000000007
201.613 0.3500000000000014
201.932 0.28330000000000055
202.251 0.15000000000000213
202.567 0.08330000000000126
202.886 0.31670000000000087
203.204 0.20000000000000284
203.523 0.15000000000000213
203.842 0.23329999999999984
204.16 0.25
204.479 0.20000000000000284
204.797 0.28330000000000055
205.114 0.1667000000000023
205.433 0.216700000000003
205.751 0.11670000000000158
206.07 0.31670000000000087
206.388 0.216700000000003
206.707 0.20000000000000284
207.025 0.20000000000000284
207.342 0.15000000000000213
207.66 0.20000000000000284
207.979 0.10000000000000142
208.297 0.23329999999999984
208.615 0.25
208.934 0.23329999999999984
209.25 0.18330000000000268
209.569 0.11670000000000158
209.887 0.26670000000000016
210.205 0.13330000000000197
210.524 0.20000000000000284
210.842 0.26670000000000016
211.158 0.13330000000000197
211.477 0.3000000000000007
211.795 0.15000000000000213
212.113 0.18330000000000268
212.432 0.20000000000000284
212.75 0.13330000000000197
213.066 0.31670000000000087
213.385 0.18330000000000268
213.703 0.216700000000003
214.021 0.20000000000000284
214.339 0.26670000000000016
214.656 0.216700000000003
214.974 0.15000000000000213
215.292 0.13330000000000197
215.61 0.20000000000000284
215.926 0.13330000000000197
216.245 0.18330000000000268
216.563 0.11670000000000158
216.881 0.25
217.199 0.15000000000000213
217.515 0.13330000000000197
217.833 0.33330000000000126
218.151 0.15000000000000213
218.469 0.1667000000000023
218.785 0.20000000000000284
219.104 0.18330000000000268
219.422 0.3000000000000007
219.74 0.33330000000000126
220.056 0.23329999999999984
220.374 0.25
220.692 0.15000000000000213
221.01 0.25
221.326 0.216700000000003
221.644 0.15000000000000213
221.962 0.23329999999999984
222.28 0.26670000000000016
222.596 0.23329999999999984
222.914 0.23329999999999984
223.232 0.20000000000000284
223.547 0.20000000000000284
223.865 0.26670000000000016
224.183 0.18330000000000268
224.501 0.13330000000000197
224.817 0.13330000000000197
225.135 0.25
225.453 0.20000000000000284
225.768 0.13330000000000197
226.086 0.15000000000000213
226.404 0.28330000000000055
226.722 0.20000000000000284
227.038 0.20000000000000284
227.355 0.15000000000000213
227.673 0.23329999999999984
227.989 0.1667000000000023
228.307 0.20000000000000284
228.625 0.3000000000000007
228.94 0.31670000000000087
229.258 0.26670000000000016
229.576 0.25
229.891 0.3000000000000007
230.209 0.3000000000000007
230.527 0.23329999999999984
230.842 0.26670000000000016
231.16 0.18330000000000268
231.478 0.23329999999999984
231.793 0.23329999999999984
232.111 0.18330000000000268
232.428 0.26670000000000016
232.744 0.20000000000000284
233.062 0.25
233.379 0.20000000000000284
233.695 0.26670000000000016
234.012 0.216700000000003
234.33 0.3667000000000016
234.645 0.18330000000000268
234.963 0.26670000000000016
235.278 0.20000000000000284
235.596 0.26670000000000016
235.913 0.216700000000003
236.229 0.23329999999999984
236.546 0.25
236.864 0.3500000000000014
237.179 0.3667000000000016
237.497 0.15000000000000213
237.812 0.3667000000000016
238.129 0.3000000000000007
238.447 0.3000000000000007
238.762 0.28330000000000055
239.08 0.28330000000000055
239.395 0.383300000000002
239.712 0.26670000000000016
240.03 0.33330000000000126
240.345 0.31670000000000087
240.662 0.20000000000000284
240.978 0.20000000000000284
241.295 0.3000000000000007
241.61 0.33330000000000126
241.927 0.26670000000000016
242.245 0.31670000000000087
242.56 0.216700000000003
242.877 0.25
243.192 0.28330000000000055
243.51 0.25
243.825 0.26670000000000016
244.142 0.216700000000003
244.459 0.18330000000000268
244.774 0.26670000000000016
245.092 0.20000000000000284
245.407 0.31670000000000087
245.724 0.18330000000000268
246.039 0.28330000000000055
246.356 0.3000000000000007
246.671 0.3500000000000014
246.988 0.3000000000000007
247.303 0.1667000000000023
247.62 0.31670000000000087
247.938 0.20000000000000284
248.253 0.25
248.57 0.20000000000000284
248.885 0.23329999999999984
249.202 0.20000000000000284
249.517 0.3000000000000007
249.834 0.11670000000000158
250.149 0.25
250.466 0.1667000000000023
250.781 0.26670000000000016
251.098 0.13330000000000197
251.412 0.31670000000000087
251.729 0.23329999999999984
252.044 0.33330000000000126
252.361 0.26670000000000016
252.676 0.15000000000000213
252.993 0.3500000000000014
253.308 0.20000000000000284
253.625 0.18330000000000268
253.94 0.18330000000000268
254.256 0.216700000000003
254.571 0.20000000000000284
254.888 0.20000000000000284
255.203 0.26670000000000016
255.518 0.28330000000000055
255.834 0.28330000000000055
256.149 0.31670000000000087
256.466 0.216700000000003
256.781 0.20000000000000284
257.097 0.25
257.412 0.18330000000000268
257.729 0.15000000000000213
258.044 0.25
258.36 0.26670000000000016
258.675 0.23329999999999984
258.99 0.3000000000000007
259.306 0.15000000000000213
259.621 0.20000000000000284
259.938 0.23329999999999984
260.252 0.216700000000003
260.569 0.25
260.883 0.3667000000000016
261.198 0.11670000000000158
261.515 0.25
261.829 0.3000000000000007
262.146 0.13330000000000197
262.46 0.23329999999999984
262.775 0.3000000000000007
263.091 0.3667000000000016
263.406 0.20000000000000284
263.723 0.10000000000000142
264.037 0.1667000000000023
264.354 0.15000000000000213
264.668 0.216700000000003
264.982 0.13330000000000197
265.299 0.25
265.613 0.3667000000000016
265.928 0.28330000000000055
266.244 0.23329999999999984
266.559 0.08330000000000126
266.875 0.28330000000000055
267.189 0.3000000000000007
267.504 0.18330000000000268
267.82 0.18330000000000268
268.134 0.26670000000000016
268.449 0.1667000000000023
268.765 0.28330000000000055
269.079 0.20000000000000284
269.394 0.10000000000000142
269.71 0.13330000000000197
270.024 0.33330000000000126
270.341 0.25
270.655 0.31670000000000087
270.969 0.18330000000000268
271.286 0.216700000000003
271.6 0.1667000000000023
271.914 0.25
272.23 0.1667000000000023
272.544 0.3500000000000014
272.859 0.1667000000000023
273.175 0.25
273.489 0.23329999999999984
273.803 0.20000000000000284
274.119 0.13330000000000197
274.433 0.20000000000000284
274.747 0.3000000000000007
275.062 0.383300000000002
275.378 0.08330000000000126
275.692 0.26670000000000016
276.006 0.13330000000000197
276.322 0.26670000000000016
276.636 0.25
276.95 0.15000000000000213
277.266 0.18330000000000268
277.58 0.15000000000000213
277.894 0.28330000000000055
278.208 0.40000000000000213
278.524 0.23329999999999984
278.838 0.25
279.152 0.216700000000003
279.468 0.23329999999999984
279.782 0.20000000000000284
280.096 0.3000000000000007
280.41 0.31670000000000087
280.726 0.26670000000000016
281.04 0.216700000000003
281.354 0.20000000000000284
281.668 0.25
281.983 0.3000000000000007
282.297 0.216700000000003
282.611 0.216700000000003
282.925 0.18330000000000268
283.241 0.20000000000000284
283.555 0.25
283.868 0.1667000000000023
284.182 0.26670000000000016
284.498 0.23329999999999984
284.812 0.25
285.126 0.40000000000000213
285.439 0.11670000000000158
285.753 0.15000000000000213
286.069 0.18330000000000268
286.383 0.216700000000003
286.696 0.20000000000000284
287.01 0.26670000000000016
287.326 0.26670000000000016
287.639 0.3000000000000007
287.953 0.1667000000000023
288.267 0.1667000000000023
288.58 0.20000000000000284
288.896 0.1667000000000023
289.21 0.23329999999999984
289.523 0.15000000000000213
289.837 0.20000000000000284
290.15 0.26670000000000016
290.466 0.3500000000000014
290.78 0.26670000000000016
291.093 0.28330000000000055
291.407 0.3500000000000014
291.72 0.1667000000000023
292.034 0.25
292.349 0.33330000000000126
292.663 0.3667000000000016
292.976 0.33330000000000126
293.29 0.26670000000000016
293.603 0.1667000000000023
293.917 0.3000000000000007
294.232 0.216700000000003
294.546 0.26670000000000016
294.859 0.28330000000000055
295.172 0.25
295.486 0.20000000000000284
295.799 0.1667000000000023
296.113 0.28330000000000055
296.428 0.216700000000003
296.741 0.20000000000000284
297.055 0.25
297.368 0.31670000000000087
297.681 0.23329999999999984
297.995 0.25
298.308 0.18330000000000268
298.621 0.1667000000000023
298.937 0.26670000000000016
299.25 0.18330000000000268
299.563 0.26670000000000016
299.876 0.25
300.19 0.25
300.503 0.25
300.816 0.3500000000000014
301.129 0.13330000000000197
301.442 0.3000000000000007
301.756 0.28330000000000055
302.071 0.216700000000003
302.384 0.13330000000000197
302.697 0.33330000000000126
303.01 0.3500000000000014
303.323 0.25
303.637 0.31670000000000087
303.95 0.3500000000000014
304.263 0.1667000000000023
304.576 0.18330000000000268
304.889 0.26670000000000016
305.202 0.1667000000000023
305.515 0.13330000000000197
305.828 0.1667000000000023
306.141 0.23329999999999984
306.456 0.216700000000003
306.769 0.11670000000000158
307.082 0.216700000000003
307.395 0.15000000000000213
307.708 0.3000000000000007
308.021 0.15000000000000213
308.334 0.216700000000003
308.647 0.20000000000000284
308.96 0.216700000000003
309.273 0.28330000000000055
309.586 0.216700000000003
309.899 0.40000000000000213
310.212 0.20000000000000284
310.525 0.31670000000000087
310.838 0.3500000000000014
311.15 0.25
311.463 0.1667000000000023
311.776 0.26670000000000016
312.089 0.26670000000000016
312.402 0.26670000000000016
312.715 0.25
313.027 0.23329999999999984
313.34 0.3500000000000014
313.653 0.1667000000000023
313.966 0.11670000000000158
314.278 0.11670000000000158
314.591 0.3000000000000007
314.904 0.3500000000000014
315.217 0.11670000000000158
315.529 0.383300000000002
315.842 0.18330000000000268
316.155 0.28330000000000055
316.467 0.23329999999999984
316.78 0.20000000000000284
317.093 0.31670000000000087
317.405 0.1667000000000023
317.718 0.1667000000000023
318.031 0.23329999999999984
318.343 0.216700000000003
318.656 0.33330000000000126
318.969 0.20000000000000284
319.281 0.31670000000000087
319.592 0.3000000000000007
319.904 0.25
320.217 0.40000000000000213
320.529 0.216700000000003
320.842 0.3000000000000007
321.154 0.26670000000000016
321.467 0.18330000000000268
321.779 0.20000000000000284
322.092 0.23329999999999984
322.404 0.33330000000000126
322.717 0.31670000000000087
323.029 0.23329999999999984
323.342 0.3000000000000007
323.654 0.216700000000003
323.965 0.3500000000000014
324.277 0.3000000000000007
324.589 0.23329999999999984
324.902 0.3000000000000007
325.214 0.26670000000000016
325.527 0.3500000000000014
325.839 0.25
326.151 0.28330000000000055
326.464 0.31670000000000087
326.776 0.26670000000000016
327.086 0.25
327.399 0.31670000000000087
327.711 0.26670000000000016
328.023 0.4333000000000027
328.335 0.3000000000000007
328.648 0.26670000000000016
328.96 0.31670000000000087
329.27 0.33330000000000126
329.582 0.383300000000002
329.895 0.18330000000000268
330.207 0.3667000000000016
330.519 0.3667000000000016
330.831 0.3000000000000007
331.143 0.33330000000000126
331.454 0.3667000000000016
331.766 0.383300000000002
332.078 0.3000000000000007
332.39 0.28330000000000055
332.702 0.18330000000000268
333.014 0.33330000000000126
333.326 0.20000000000000284
333.636 0.40000000000000213
333.948 0.3000000000000007
334.261 0.28330000000000055
334.573 0.20000000000000284
334.885 0.20000000000000284
335.195 0.23329999999999984
335.507 0.31670000000000087
335.819 0.383300000000002
336.131 0.25
336.443 0.216700000000003
336.753 0.3667000000000016
337.065 0.23329999999999984
337.377 0.31670000000000087
337.689 0.3000000000000007
338.001 0.4333000000000027
338.31 0.28330000000000055
338.622 0.5
338.934 0.26670000000000016
339.246 0.3000000000000007
339.558 0.3000000000000007
339.868 0.25
340.18 0.26670000000000016
340.492 0.26670000000000016
340.804 0.28330000000000055
341.113 0.45000000000000284
341.425 0.216700000000003
341.737 0.25
342.049 0.31670000000000087
342.361 0.40000000000000213
342.67 0.25
342.982 0.26670000000000016
343.294 0.31670000000000087
343.606 0.3667000000000016
343.915 0.40000000000000213
344.227 0.28330000000000055
344.539 0.33330000000000126
344.849 0.4333000000000027
345.16 0.28330000000000055
345.472 0.31670000000000087
345.784 0.3500000000000014
346.093 0.3000000000000007
346.405 0.3000000000000007
346.717 0.28330000000000055
347.028 0.1667000000000023
347.338 0.28330000000000055
347.649 0.25
347.961 0.3000000000000007
348.271 0.3500000000000014
348.582 0.216700000000003
348.894 0.3667000000000016
349.205 0.31670000000000087
349.515 0.31670000000000087
349.826 0.33330000000000126
350.138 0.3000000000000007
350.447 0.40000000000000213
350.759 0.383300000000002
351.07 0.26670000000000016
351.38 0.31670000000000087
351.691 0.4333000000000027
352.003 0.40000000000000213
352.312 0.28330000000000055
352.624 0.4167000000000023
352.935 0.26670000000000016
353.245 0.3000000000000007
353.556 0.216700000000003
353.867 0.3500000000000014
354.177 0.3667000000000016
354.488 0.18330000000000268
354.799 0.23329999999999984
355.109 0.23329999999999984
355.42 0.23329999999999984
355.732 0.31670000000000087
356.041 0.28330000000000055
356.352 0.4333000000000027
356.663 0.33330000000000126
356.973 0.25
357.284 0.31670000000000087
357.593 0.3500000000000014
357.905 0.28330000000000055
358.216 0.26670000000000016
358.525 0.25
358.836 0.33330000000000126
359.147 0.33330000000000126
359.457 0.31670000000000087
359.768 0.25
360.077 0.3500000000000014
360.388 0.18330000000000268
360.699 0.3000000000000007
361.008 0.20000000000000284
361.32 0.31670000000000087
361.629 0.25
361.94 0.25
362.251 0.25
362.56 0.28330000000000055
362.871 0.26670000000000016
363.18 0.25
363.491 0.23329999999999984
363.8 0.25
364.111 0.40000000000000213
364.422 0.3000000000000007
364.731 0.11670000000000158
365.042 0.31670000000000087
365.351 0.23329999999999984
365.662 0.25
365.971 0.3667000000000016
366.282 0.23329999999999984
366.593 0.216700000000003
366.902 0.25
367.213 0.3667000000000016
367.522 0.28330000000000055
367.833 0.31670000000000087
368.142 0.383300000000002
368.453 0.28330000000000055
368.762 0.28330000000000055
369.073 0.3500000000000014
369.381 0.33330000000000126
369.692 0.31670000000000087
370.001 0.08330000000000126
370.312 0.26670000000000016
370.623 0.23329999999999984
370.932 0.26670000000000016
371.242 0.25
371.551 0.15000000000000213
371.862 0.25
372.171 0.28330000000000055
372.482 0.4167000000000023
372.79 0.20000000000000284
373.101 0.33330000000000126
373.41 0.18330000000000268
373.721 0.3000000000000007
374.029 0.25
374.34 0.26670000000000016
374.649 0.28330000000000055
374.959 0.33330000000000126
375.268 0.28330000000000055
375.577 0.3500000000000014
375.887 0.216700000000003
376.196 0.28330000000000055
376.506 0.3000000000000007
376.815 0.33330000000000126
377.126 0.23329999999999984
377.434 0.3667000000000016
377.745 0.33330000000000126
378.053 0.25
378.364 0.3000000000000007
378.672 0.31670000000000087
378.983 0.3500000000000014
379.292 0.31670000000000087
379.6 0.26670000000000016
379.911 0.20000000000000284
380.219 0.33330000000000126
380.53 0.23329999999999984
380.838 0.20000000000000284
381.148 0.23329999999999984
381.457 0.3000000000000007
381.767 0.31670000000000087
382.076 0.26670000000000016
382.384 0.18330000000000268
382.695 0.25
383.003 0.20000000000000284
383.313 0.4167000000000023
383.622 0.23329999999999984
383.93 0.26670000000000016
384.24 0.383300000000002
384.549 0.25
384.859 0.4333000000000027
385.167 0.26670000000000016
385.476 0.23329999999999984
385.786 0.4167000000000023
386.094 0.216700000000003
386.405 0.3667000000000016
386.713 0.25
387.021 0.3500000000000014
387.331 0.31670000000000087
387.64 0.15000000000000213
387.948 0.3667000000000016
388.258 0.26670000000000016
388.566 0.23329999999999984
388.877 0.4333000000000027
389.185 0.1667000000000023
389.493 0.28330000000000055
389.803 0.26670000000000016
390.111 0.4167000000000023
390.419 0.3667000000000016
390.729 0.18330000000000268
391.038 0.383300000000002
391.346 0.25
391.656 0.383300000000002
391.964 0.28330000000000055
392.272 0.3000000000000007
392.582 0.33330000000000126
392.89 0.3667000000000016
393.198 0.45000000000000284
393.508 0.3000000000000007
393.816 0.25
394.124 0.3500000000000014
394.434 0.40000000000000213
394.742 0.33330000000000126
395.05 0.3667000000000016
395.36 0.3500000000000014
395.668 0.216700000000003
395.976 0.3000000000000007
396.286 0.3667000000000016
396.594 0.3667000000000016
396.902 0.3667000000000016
397.21 0.466700000000003
397.52 0.18330000000000268
397.828 0.31670000000000087
398.135 0.40000000000000213
398.445 0.25
398.753 0.3000000000000007
399.061 0.3000000000000007
399.369 0.28330000000000055
399.679 0.4333000000000027
399.987 0.40000000000000213
400.294 0.3500000000000014
400.604 0.33330000000000126
400.912 0.383300000000002
401.22 0.31670000000000087
401.527 0.383300000000002
401.837 0.4333000000000027
402.145 0.25
402.453 0.45000000000000284
402.76 0.48329999999999984
403.07 0.3000000000000007
403.378 0.5
403.686 0.20000000000000284
403.993 0.31670000000000087
404.303 0.26670000000000016
404.611 0.3000000000000007
404.918 0.25
405.226 0.26670000000000016
405.533 0.383300000000002
405.843 0.33330000000000126
406.151 0.383300000000002
406.458 0.45000000000000284
406.766 0.4167000000000023
407.076 0.5167000000000002
407.383 0.4167000000000023
407.691 0.5333000000000006
407.998 0.6000000000000014
408.306 0.4333000000000027
408.615 0.3667000000000016
408.923 0.3000000000000007
409.23 0.4364434077364052
409.538 0.44791070253691245
409.845 0.43952604544683993
410.153 0.43844039039642624
410.462 0.44287227069315094
410.77 0.4400511195973209
411.077 0.44215557242521086
411.384 0.5333000000000006
411.692 0.466700000000003
412.001 0.5500000000000007
412.309 0.3500000000000014
412.616 0.5167000000000002
412.923 0.5500000000000007
413.231 0.633300000000002
413.538 0.45000000000000284
413.845 0.5167000000000002
414.155 0.6667000000000023
414.462 0.5333000000000006
414.769 0.75
415.077 0.5667000000000009
415.384 0.8667000000000016
415.691 0.716700000000003
415.999 0.8000000000000007
416.308 0.883300000000002
416.615 1.0333000000000006
416.922 0.7833000000000006
417.23 0.9333000000000027
417.537 0.9832999999999998
417.844 0.9832999999999998
418.151 1.0833000000000013
418.458 1.0
418.768 1.1000000000000014
419.075 1.0167000000000002
419.382 1.4333000000000027
419.689 1.4000000000000021
419.996 1.3167000000000009
420.303 1.4000000000000021
420.61 1.4333000000000027
420.918 1.4167000000000023
421.225 1.3167000000000009
421.532 1.4167000000000023
421.841 1.4000000000000021
422.148 1.4167000000000023
422.455 1.4832999999999998
422.762 1.3333000000000013
423.069 1.4333000000000027
423.376 1.3167000000000009
423.683 1.3167000000000009
423.99 1.5
424.297 1.216700000000003
424.604 1.216700000000003
424.911 1.2000000000000028
425.218 1.4500000000000028
425.525 1.2833000000000006
425.832 1.0667000000000009
426.139 1.3167000000000009
426.446 1.216700000000003
426.753 0.9167000000000023
427.061 0.9500000000000028
427.368 0.9167000000000023
427.675 1.0667000000000009
427.982 1.0667000000000009
428.289 0.8500000000000014
428.596 0.966700000000003
428.903 0.9000000000000021
429.209 0.883300000000002
429.516 0.716700000000003
429.823 0.75
430.13 0.8333000000000013
430.437 0.7833000000000006
430.743 0.75
431.05 0.7332999999999998
431.357 0.7332999999999998
431.664 0.6000000000000014
431.97 0.6167000000000016
432.277 0.5667000000000009
432.584 0.75
432.891 0.5
433.197 0.6833000000000027
433.504 0.45000000000000284
433.811 0.8500000000000014
434.117 0.5833000000000013
434.424 0.5833000000000013
434.731 0.7000000000000028
435.037 0.5833000000000013
435.344 0.4167000000000023
435.65 0.48329999999999984
435.957 0.5500000000000007
436.262 0.45000000000000284
436.568 0.4333000000000027
436.875 0.5833000000000013
437.181 0.5
437.488 0.5
437.794 0.45000000000000284
438.101 0.48329999999999984
438.407 0.383300000000002
438.714 0.31670000000000087
439.02 0.6000000000000014
439.327 0.383300000000002
439.633 0.40000000000000213
439.94 0.5
440.246 0.33330000000000126
440.553 0.4333000000000027
440.859 0.3667000000000016
441.163 0.40000000000000213
441.47 0.3667000000000016
441.776 0.31670000000000087
442.083 0.40000000000000213
442.389 0.4333000000000027
442.695 0.383300000000002
443.002 0.4333000000000027
443.308 0.26670000000000016
443.614 0.466700000000003
443.921 0.5500000000000007
444.225 0.45000000000000284
444.531 0.5167000000000002
444.838 0.466700000000003
445.144 0.383300000000002
445.45 0.3500000000000014
445.757 0.4333000000000027
446.063 0.3667000000000016
446.369 0.4167000000000023
446.675 0.3500000000000014
446.979 0.383300000000002
447.286 0.383300000000002
447.592 0.4333000000000027
447.898 0.5500000000000007
448.204 0.466700000000003
448.51 0.4333000000000027
448.817 0.3500000000000014
449.121 0.466700000000003
449.427 0.45000000000000284
449.733 0.383300000000002
450.039 0.3500000000000014
450.345 0.4333000000000027
450.651 0.45000000000000284
450.955 0.3500000000000014
451.261 0.5167000000000002
451.568 0.4167000000000023
451.874 0.45000000000000284
452.18 0.4167000000000023
452.486 0.3000000000000007
452.79 0.5667000000000009
453.096 0.40000000000000213
453.402 0.3500000000000014
453.708 0.45000000000000284
454.014 0.4167000000000023
454.318 0.48329999999999984
454.624 0.3000000000000007
454.93 0.3667000000000016
455.236 0.4167000000000023
455.541 0.4167000000000023
455.845 0.40000000000000213
456.151 0.4167000000000023
456.457 0.45000000000000284
456.763 0.33330000000000126
457.067 0.40000000000000213
457.373 0.3667000000000016
457.679 0.3500000000000014
457.985 0.33330000000000126
458.29 0.31670000000000087
458.594 0.3667000000000016
458.9 0.45000000000000284
459.206 0.3500000000000014
459.512 0.31670000000000087
459.815 0.3500000000000014
460.121 0.45000000000000284
460.427 0.466700000000003
460.733 0.3667000000000016
461.036 0.3000000000000007
461.342 0.45000000000000284
461.648 0.3667000000000016
461.954 0.3500000000000014
462.257 0.25
462.563 0.28330000000000055
462.869 0.3500000000000014
463.172 0.466700000000003
463.478 0.3667000000000016
463.784 0.33330000000000126
464.089 0.3000000000000007
464.393 0.383300000000002
464.699 0.3667000000000016
465.004 0.31670000000000087
465.308 0.5333000000000006
465.613 0.3667000000000016
465.919 0.28330000000000055
466.225 0.4167000000000023
466.528 0.3667000000000016
466.834 0.26670000000000016
467.139 0.4167000000000023
467.443 0.48329999999999984
467.748 0.45000000000000284
468.054 0.45000000000000284
468.357 0.33330000000000126
468.663 0.4167000000000023
468.968 0.3667000000000016
469.272 0.3667000000000016
469.577 0.383300000000002
469.883 0.4167000000000023
470.186 0.5
470.492 0.3000000000000007
470.797 0.33330000000000126
471.1 0.3667000000000016
471.406 0.26670000000000016
471.711 0.33330000000000126
472.014 0.5167000000000002
472.32 0.45000000000000284
472.625 0.45000000000000284
472.929 0.45000000000000284
473.234 0.4167000000000023
473.539 0.5667000000000009
473.843 0.5500000000000007
474.148 0.383300000000002
474.451 0.45000000000000284
474.756 0.4167000000000023
475.062 0.40000000000000213
475.365 0.6167000000000016
475.67 0.5
475.973 0.5167000000000002
476.279 0.5167000000000002
476.584 0.4167000000000023
476.887 0.6167000000000016
477.192 0.7332999999999998
477.498 0.75
477.801 0.8500000000000014
478.106 0.8333000000000013
478.409 0.8167000000000009
478.714 0.9333000000000027
479.017 1.1167000000000016
479.322 0.75
479.628 0.8167000000000009
479.931 0.8167000000000009
480.236 0.7833000000000006
480.539 0.9333000000000027
480.844 0.8000000000000007
481.147 0.716700000000003
481.452 0.6500000000000021
481.757 0.7667000000000002
482.06 0.8667000000000016
482.365 0.716700000000003
482.668 0.6833000000000027
482.973 0.5500000000000007
483.276 0.5667000000000009
483.581 0.4333000000000027
483.884 0.5667000000000009
484.189 0.4333000000000027
484.494 0.466700000000003
484.797 0.5500000000000007
485.102 0.4167000000000023
485.405 0.45000000000000284
485.71 0.466700000000003
486.013 0.4167000000000023
486.318 0.4333000000000027
486.621 0.40000000000000213
486.925 0.48329999999999984
487.228 0.4333000000000027
487.533 0.48329999999999984
487.836 0.4333000000000027
488.141 0.26670000000000016
488.444 0.26670000000000016
488.748 0.33330000000000126
489.051 0.40000000000000213
489.356 0.383300000000002
489.659 0.4333000000000027
489.964 0.33330000000000126
490.266 0.3500000000000014
490.571 0.33330000000000126
490.874 0.40000000000000213
491.179 0.40000000000000213
491.481 0.383300000000002
491.786 0.25
492.089 0.5167000000000002
492.393 0.40000000000000213
492.696 0.31670000000000087
493.001 0.20000000000000284
493.303 0.4167000000000023
493.606 0.3500000000000014
493.911 0.3500000000000014
494.213 0.3500000000000014
494.518 0.23329999999999984
494.821 0.25
495.125 0.383300000000002
495.428 0.31670000000000087
495.732 0.28330000000000055
496.035 0.28330000000000055
496.337 0.31670000000000087
496.642 0.383300000000002
496.945 0.20000000000000284
497.249 0.216700000000003
497.552 0.40000000000000213
497.856 0.40000000000000213
498.159 0.3500000000000014
498.461 0.3000000000000007
498.766 0.45000000000000284
499.068 0.28330000000000055
499.372 0.13330000000000197
499.675 0.25
499.977 0.33330000000000126
500.282 0.3000000000000007
500.584 0.23329999999999984
500.889 0.28330000000000055
501.191 0.31670000000000087
501.493 0.26670000000000016
501.798 0.45000000000000284
502.1 0.25
502.402 0.28330000000000055
502.707 0.3667000000000016
503.009 0.25
503.314 0.25
503.616 0.28330000000000055
503.918 0.31670000000000087
504.222 0.216700000000003
504.525 0.28330000000000055
504.827 0.3500000000000014
505.131 0.31670000000000087
505.433 0.26670000000000016
505.736 0.26670000000000016
506.04 0.3667000000000016
506.342 0.28330000000000055
506.646 0.33330000000000126
506.949 0.33330000000000126
507.251 0.1667000000000023
507.555 0.26670000000000016
507.857 0.25
508.159 0.3000000000000007
508.461 0.25
508.766 0.33330000000000126
509.068 0.31670000000000087
509.37 0.25
509.674 0.23329999999999984
509.976 0.216700000000003
510.278 0.216700000000003
510.582 0.33330000000000126
510.884 0.15000000000000213
511.186 0.25
511.49 0.33330000000000126
511.792 0.3667000000000016
512.094 0.20000000000000284
512.396 0.3500000000000014
512.701 0.18330000000000268
513.003 0.3000000000000007
513.305 0.20000000000000284
513.609 0.216700000000003
513.91 0.3500000000000014
514.212 0.08330000000000126
514.514 0.33330000000000126
514.818 0.3667000000000016
515.12 0.383300000000002
515.422 0.31670000000000087
515.724 0.23329999999999984
516.028 0.3000000000000007
516.33 0.15000000000000213
516.632 0.3000000000000007
516.934 0.383300000000002
517.237 0.26670000000000016
517.539 0.26670000000000016
517.841 0.31670000000000087
518.143 0.31670000000000087
518.447 0.26670000000000016
518.749 0.25
519.05 0.3667000000000016
519.352 0.216700000000003
519.656 0.216700000000003
519.958 0.31670000000000087
520.26 0.1667000000000023
520.561 0.33330000000000126
520.863 0.3000000000000007
521.167 0.28330000000000055
521.468 0.33330000000000126
521.77 0.26670000000000016
522.072 0.33330000000000126
522.376 0.3667000000000016
522.677 0.31670000000000087
522.979 0.25
523.281 0.31670000000000087
523.582 0.25
523.884 0.3500000000000014
524.187 0.3500000000000014
524.489 0.28330000000000055
524.791 0.33330000000000126
525.092 0.18330000000000268
525.394 0.3000000000000007
525.697 0.25
525.999 0.31670000000000087
526.301 0.33330000000000126
526.602 0.25
526.904 0.31670000000000087
527.205 0.216700000000003
527.507 0.3667000000000016
527.81 0.25
528.112 0.31670000000000087
528.413 0.3500000000000014
528.715 0.20000000000000284
529.016 0.4333000000000027
529.318 0.18330000000000268
529.619 0.3000000000000007
529.922 0.23329999999999984
530.224 0.26670000000000016
530.525 0.31670000000000087
530.827 0.3667000000000016
531.128 0.31670000000000087
531.429 0.26670000000000016
531.731 0.28330000000000055
532.032 0.40000000000000213
532.336 0.13330000000000197
532.637 0.18330000000000268
532.938 0.18330000000000268
533.24 0.26670000000000016
533.541 0.31670000000000087
533.842 0.28330000000000055
534.143 0.466700000000003
534.445 0.216700000000003
534.746 0.3667000000000016
535.047 0.28330000000000055
535.351 0.216700000000003
535.652 0.31670000000000087
535.953 0.3000000000000007
536.254 0.216700000000003
536.555 0.18330000000000268
536.857 0.18330000000000268
537.158 0.4167000000000023
537.459 0.31670000000000087
537.76 0.3500000000000014
538.061 0.383300000000002
538.362 0.31670000000000087
538.664 0.40000000000000213
538.965 0.25
539.266 0.3000000000000007
539.567 0.3000000000000007
539.868 0.216700000000003
540.169 0.28330000000000055
540.472 0.3000000000000007
540.773 0.31670000000000087
541.074 0.28330000000000055
541.375 0.28330000000000055
541.677 0.26670000000000016
541.978 0.4333000000000027
542.279 0.40000000000000213
542.58 0.28330000000000055
542.881 0.20000000000000284
543.182 0.3000000000000007
543.483 0.20000000000000284
543.784 0.4333000000000027
544.085 0.18330000000000268
544.385 0.33330000000000126
544.686 0.3500000000000014
544.987 0.26670000000000016
545.288 0.383300000000002
545.589 0.383300000000002
545.89 0.33330000000000126
546.191 0.3500000000000014
546.492 0.18330000000000268
546.793 0.383300000000002
547.094 0.466700000000003
547.394 0.20000000000000284
547.695 0.3500000000000014
547.996 0.216700000000003
548.297 0.5167000000000002
548.596 0.3667000000000016
548.897 0.4167000000000023
549.197 0.4333000000000027
549.498 0.383300000000002
549.799 0.40000000000000213
550.1 0.5167000000000002
550.4 0.383300000000002
550.701 0.45000000000000284
551.002 0.3500000000000014
551.303 0.45000000000000284
551.603 0.4333000000000027
551.904 0.383300000000002
552.205 0.5833000000000013
552.505 0.466700000000003
552.806 0.5
553.107 0.48329999999999984
553.407 0.6000000000000014
553.706 0.6500000000000021
554.007 0.5333000000000006
554.307 0.5
554.608 0.5667000000000009
554.909 0.6167000000000016
555.209 0.5333000000000006
555.51 0.40000000000000213
555.81 0.5667000000000009
556.111 0.40000000000000213
556.411 0.466700000000003
556.71 0.31670000000000087
557.01 0.5500000000000007
557.311 0.466700000000003
557.612 0.3667000000000016
557.912 0.3667000000000016
558.213 0.33330000000000126
558.513 0.4167000000000023
558.813 0.4333000000000027
559.112 0.5500000000000007
559.412 0.18330000000000268
559.713 0.383300000000002
560.013 0.3667000000000016
560.314 0.4167000000000023
560.614 0.26670000000000016
560.914 0.3500000000000014
561.213 0.3500000000000014
561.513 0.1667000000000023
561.814 0.3500000000000014
562.114 0.20000000000000284
562.414 0.383300000000002
562.715 0.33330000000000126
563.015 0.25
563.313 0.33330000000000126
563.614 0.33330000000000126
563.914 0.26670000000000016
564.214 0.28330000000000055
564.515 0.26670000000000016
564.813 0.33330000000000126
565.113 0.23329999999999984
565.413 0.25
565.714 0.28330000000000055
566.014 0.26670000000000016
566.312 0.18330000000000268
566.612 0.383300000000002
566.912 0.25
567.213 0.3000000000000007
567.513 0.25
567.811 0.26670000000000016
568.111 0.11670000000000158
568.411 0.3000000000000007
568.712 0.15000000000000213
569.012 0.13330000000000197
569.31 0.31670000000000087
569.61 0.33330000000000126
569.91 0.33330000000000126
570.21 0.466700000000003
570.508 0.28330000000000055
570.808 0.466700000000003
571.108 0.31670000000000087
571.408 0.3000000000000007
571.706 0.3000000000000007
572.006 0.31670000000000087
572.306 0.31670000000000087
572.607 0.26670000000000016
572.904 0.18330000000000268
573.204 0.1667000000000023
573.505 0.33330000000000126
573.805 0.3500000000000014
574.102 0.23329999999999984
574.402 0.3000000000000007
574.702 0.26670000000000016
575.002 0.28330000000000055
575.3 0.26670000000000016
575.6 0.31670000000000087
575.9 0.3500000000000014
576.198 0.1667000000000023
576.498 0.216700000000003
576.798 0.28330000000000055
577.098 0.20000000000000284
577.395 0.23329999999999984
577.695 0.216700000000003
577.995 0.3500000000000014
578.293 0.23329999999999984
578.593 0.3500000000000014
578.893 0.18330000000000268
579.19 0.216700000000003
579.49 0.216700000000003
579.79 0.26670000000000016
580.088 0.10000000000000142
580.387 0.25
580.687 0.20000000000000284
580.985 0.28330000000000055
581.285 0.23329999999999984
581.584 0.3500000000000014
581.882 0.25
582.182 0.33330000000000126
582.482 0.31670000000000087
582.779 0.216700000000003
583.079 0.1667000000000023
583.378 0.23329999999999984
583.676 0.20000000000000284
583.976 0.3000000000000007
584.275 0.25
584.573 0.3000000000000007
584.873 0.25
585.17 0.216700000000003
585.47 0.31670000000000087
585.769 0.216700000000003
586.067 0.15000000000000213
586.367 0.23329999999999984
586.666 0.28330000000000055
586.964 0.33330000000000126
587.263 0.10000000000000142
587.561 0.26670000000000016
587.86 0.26670000000000016
588.16 0.3500000000000014
588.457 0.25
588.757 0.3500000000000014
589.054 0.33330000000000126
589.354 0.20000000000000284
589.653 0.23329999999999984
589.951 0.216700000000003
590.25 0.3000000000000007
590.547 0.216700000000003
590.847 0.31670000000000087
591.144 0.11670000000000158
591.444 0.25
591.743 0.3000000000000007
592.04 0.28330000000000055
592.34 0.3000000000000007
592.637 0.20000000000000284
592.936 0.216700000000003
593.234 0.25
593.533 0.20000000000000284
593.832 0.25
594.13 0.25
594.429 0.33330000000000126
594.726 0.28330000000000055
595.026 0.3667000000000016
595.323 0.18330000000000268
595.622 0.25
595.919 0.3500000000000014
596.219 0.216700000000003
596.516 0.23329999999999984
596.815 0.25
597.112 0.26670000000000016
597.411 0.40000000000000213
597.709 0.4167000000000023
598.008 0.3667000000000016
598.305 0.3667000000000016
598.604 0.1667000000000023
598.901 0.18330000000000268
599.2 0.3667000000000016
599.497 0.3000000000000007
599.797 0.33330000000000126
600.094 0.33330000000000126
600.393 0.33330000000000126
600.69 0.23329999999999984
600.989 0.3500000000000014
601.286 0.1667000000000023
601.585 0.23329999999999984
601.882 0.3500000000000014
602.181 0.33330000000000126
602.478 0.23329999999999984
602.777 0.28330000000000055
603.074 0.23329999999999984
603.373 0.3500000000000014
603.67 0.20000000000000284
603.969 0.28330000000000055
604.266 0.3000000000000007
604.563 0.33330000000000126
604.862 0.28330000000000055
605.159 0.26670000000000016
605.458 0.25
605.755 0.3667000000000016
606.054 0.216700000000003
606.351 0.3667000000000016
606.65 0.23329999999999984
606.946 0.466700000000003
607.243 0.3667000000000016
607.542 0.383300000000002
607.839 0.3500000000000014
608.138 0.466700000000003
608.435 0.33330000000000126
608.732 0.3500000000000014
609.03 0.40000000000000213
609.327 0.3667000000000016
609.626 0.3000000000000007
609.923 0.5167000000000002
610.22 0.48329999999999984
610.518 0.45000000000000284
610.815 0.31670000000000087
611.114 0.4167000000000023
611.411 0.4333000000000027
611.707 0.40000000000000213
612.006 0.26670000000000016
612.303 0.4167000000000023
612.601 0.33330000000000126
612.898 0.23329999999999984
613.195 0.3667000000000016
613.493 0.3667000000000016
613.79 0.45000000000000284
614.087 0.20000000000000284
614.385 0.45000000000000284
614.682 0.4167000000000023
614.979 0.466700000000003
615.277 0.3500000000000014
615.574 0.31670000000000087
615.87 0.26670000000000016
616.169 0.31670000000000087
616.466 0.25
616.764 0.28330000000000055
617.061 0.23329999999999984
617.357 0.216700000000003
617.656 0.216700000000003
617.952 0.3000000000000007
618.249 0.3000000000000007
618.545 0.40000000000000213
618.844 0.3667000000000016
619.14 0.216700000000003
619.437 0.25
619.735 0.33330000000000126
620.032 0.3000000000000007
620.328 0.3000000000000007
620.626 0.15000000000000213
620.923 0.216700000000003
621.219 0.25
621.518 0.18330000000000268
621.814 0.23329999999999984
622.11 0.28330000000000055
622.407 0.1667000000000023
622.705 0.33330000000000126
623.002 0.216700000000003
623.298 0.33330000000000126
623.594 0.15000000000000213
623.893 0.33330000000000126
624.189 0.18330000000000268
624.485 0.25
624.784 0.33330000000000126
625.08 0.3000000000000007
625.376 0.216700000000003
625.672 0.26670000000000016
625.971 0.45000000000000284
626.267 0.26670000000000016
626.563 0.28330000000000055
626.859 0.216700000000003
627.158 0.31670000000000087
627.454 0.3000000000000007
627.75 0.33330000000000126
628.046 0.28330000000000055
628.342 0.383300000000002
628.641 0.25
628.937 0.216700000000003
629.233 0.45000000000000284
629.529 0.216700000000003
629.827 0.31670000000000087
630.123 0.25
630.419 0.28330000000000055
630.715 0.3000000000000007
631.011 0.25
631.31 0.3000000000000007
631.606 0.23329999999999984
631.902 0.15000000000000213
632.198 0.31670000000000087
632.494 0.20000000000000284
632.792 0.08330000000000126
633.088 0.40000000000000213
633.384 0.26670000000000016
633.68 0.26670000000000016
633.976 0.20000000000000284
634.272 0.23329999999999984
634.57 0.31670000000000087
634.866 0.28330000000000055
635.162 0.28330000000000055
635.458 0.20000000000000284
635.754 0.383300000000002
636.05 0.20000000000000284
636.347 0.23329999999999984
636.643 0.216700000000003
636.939 0.23329999999999984
637.235 0.216700000000003
637.531 0.216700000000003
637.827 0.28330000000000055
638.123 0.33330000000000126
638.421 0.03330000000000055
638.716 0.26670000000000016
639.012 0.25
639.308 0.216700000000003
639.604 0.216700000000003
639.9 0.23329999999999984
640.195 0.383300000000002
640.491 0.216700000000003
640.789 0.26670000000000016
641.085 0.3000000000000007
641.381 0.28330000000000055
641.676 0.33330000000000126
641.972 0.15000000000000213
642.268 0.23329999999999984
642.563 0.3500000000000014
642.859 0.15000000000000213
643.155 0.31670000000000087
643.451 0.23329999999999984
643.746 0.3500000000000014
644.044 0.26670000000000016
644.34 0.26670000000000016
644.635 0.28330000000000055
644.931 0.31670000000000087
645.227 0.20000000000000284
645.522 0.4167000000000023
645.818 0.20000000000000284
646.113 0.18330000000000268
646.409 0.18330000000000268
646.704 0.28330000000000055
647.0 0.216700000000003
647.296 0.25
647.591 0.4167000000000023
647.887 0.216700000000003
648.182 0.3000000000000007
648.478 0.31670000000000087
648.773 0.33330000000000126
649.069 0.383300000000002
649.366 0.28330000000000055
649.662 0.3667000000000016
649.957 0.31670000000000087
650.253 0.20000000000000284
650.548 0.3667000000000016
650.844 0.28330000000000055
651.139 0.26670000000000016
651.434 0.28330000000000055
651.73 0.33330000000000126
652.025 0.383300000000002
652.321 0.28330000000000055
652.616 0.33330000000000126
652.911 0.31670000000000087
653.207 0.3000000000000007
653.502 0.33330000000000126
653.797 0.4333000000000027
654.093 0.48329999999999984
654.388 0.45000000000000284
654.683 0.48329999999999984
654.979 0.3000000000000007
655.274 0.3667000000000016
655.567 0.45000000000000284
655.863 0.4333000000000027
656.158 0.45000000000000284
656.453 0.7000000000000028
656.748 0.4167000000000023
657.044 0.6167000000000016
657.339 0.6667000000000023
657.634 0.383300000000002
657.929 0.5167000000000002
658.224 0.3500000000000014
658.52 0.6000000000000014
658.815 0.5667000000000009
659.11 0.5500000000000007
659.405 0.5333000000000006
659.7 0.45000000000000284
659.995 0.6667000000000023
660.291 0.5333000000000006
660.586 0.4167000000000023
660.879 0.5500000000000007
661.174 0.466700000000003
661.469 0.45000000000000284
661.764 0.3500000000000014
662.059 0.5500000000000007
662.354 0.40000000000000213
662.649 0.5167000000000002
662.944 0.5500000000000007
663.239 0.4167000000000023
663.534 0.5333000000000006
663.83 0.466700000000003
664.122 0.33330000000000126
664.417 0.383300000000002
664.713 0.3000000000000007
665.008 0.3500000000000014
665.302 0.40000000000000213
665.597 0.4167000000000023
665.892 0.383300000000002
666.187 0.4167000000000023
666.48 0.3500000000000014
666.775 0.15000000000000213
667.07 0.31670000000000087
667.365 0.40000000000000213
667.66 0.383300000000002
667.955 0.28330000000000055
668.25 0.383300000000002
668.542 0.216700000000003
668.837 0.25
669.132 0.3000000000000007
669.427 0.25
669.722 0.25
670.017 0.10000000000000142
670.31 0.31670000000000087
670.604 0.1667000000000023
670.899 0.31670000000000087
671.194 0.33330000000000126
671.489 0.15000000000000213
671.783 0.26670000000000016
672.076 0.15000000000000213
672.371 0.26670000000000016
672.666 0.3500000000000014
672.96 0.24352524114372898
673.255 0.24743336083069778
673.548 0.24591915298260147
673.842 0.2502446684266353
674.137 0.2411080328913009
674.432 0.24671095159731493
674.727 0.2523599412823003
675.019 0.20000000000000284
675.314 0.26670000000000016
675.608 0.25
675.903 0.3000000000000007
676.196 0.23329999999999984
676.49 0.23329999999999984
676.785 0.3000000000000007
677.079 0.216700000000003
677.374 0.25
677.667 0.31670000000000087
677.961 0.25
678.256 0.20000000000000284
678.55 0.20000000000000284
678.843 0.216700000000003
679.137 0.28330000000000055
679.432 0.13330000000000197
679.726 0.3000000000000007
680.019 0.13330000000000197
680.313 0.28330000000000055
680.608 0.11670000000000158
680.902 0.216700000000003
681.195 0.20000000000000284
681.489 0.28330000000000055
681.784 0.23329999999999984
682.076 0.15000000000000213
682.37 0.31670000000000087
682.665 0.33330000000000126
682.959 0.28330000000000055
683.252 0.1667000000000023
683.546 0.3000000000000007
683.84 0.20000000000000284
684.133 0.31670000000000087
684.427 0.15000000000000213
684.721 0.20000000000000284
685.014 0.216700000000003
685.308 0.11670000000000158
685.602 0.28330000000000055
685.895 0.216700000000003
686.189 0.3000000000000007
686.483 0.20000000000000284
686.778 0.18330000000000268
687.07 0.25
687.364 0.23329999999999984
687.658 0.28330000000000055
687.951 0.20000000000000284
688.245 0.11670000000000158
688.537 0.15000000000000213
688.831 0.33330000000000126
689.125 0.13330000000000197
689.418 0.26670000000000016
689.712 0.26670000000000016
690.006 0.11670000000000158
690.298 0.1667000000000023
690.592 0.28330000000000055
690.886 0.25
691.178 0.18330000000000268
691.473 0.216700000000003
691.767 0.20000000000000284
692.059 0.23329999999999984
692.353 0.26670000000000016
692.645 0.20000000000000284
692.939 0.18330000000000268
693.233 0.18330000000000268
693.525 0.18330000000000268
693.819 0.15000000000000213
694.111 0.20000000000000284
694.405 0.11670000000000158
694.699 0.25
694.991 0.20000000000000284
695.285 0.18330000000000268
695.577 0.31670000000000087
695.871 0.31670000000000087
696.165 0.28330000000000055
696.457 0.31670000000000087
696.751 0.13330000000000197
697.043 0.216700000000003
697.337 0.18330000000000268
697.629 0.10000000000000142
697.923 0.33330000000000126
698.217 0.216700000000003
698.509 0.216700000000003
698.802 0.11670000000000158
699.094 0.1667000000000023
699.388 0.216700000000003
699.68 0.13330000000000197
699.974 0.23329999999999984
700.266 0.15000000000000213
700.56 0.25
700.853 0.28330000000000055
701.145 0.28330000000000055
701.439 0.1667000000000023
701.731 0.216700000000003
702.025 0.26670000000000016
702.316 0.23329999999999984
702.61 0.1667000000000023
702.902 0.25
703.196 0.11670000000000158
703.487 0.216700000000003
703.781 0.216700000000003
704.073 0.1667000000000023
704.367 0.08330000000000126
704.658 0.18330000000000268
704.952 0.13330000000000197
705.244 0.11670000000000158
705.537 0.15000000000000213
705.829 0.3667000000000016
706.122 0.18330000000000268
706.414 0.18330000000000268
706.708 0.216700000000003
706.999 0.10000000000000142
707.293 0.31670000000000087
