# Created: 2019-11-28 11:43:37.414693
# rshift intensity
55.3072 0.0900000000000003
55.6331 0.09833000000000025
55.9568 0.1016600000000003
56.2826 0.1200000000000001
56.6085 0.10499999999999998
56.9343 0.1016600000000003
57.2601 0.10000000000000009
57.5859 0.10000000000000009
57.9117 0.07500000000000018
58.2374 0.09332999999999991
58.5632 0.08833000000000002
58.8889 0.08666000000000018
59.2147 0.06000000000000005
59.5382 0.07000000000000028
59.864 0.07000000000000028
60.1897 0.08666000000000018
60.5154 0.07166000000000006
60.841 0.08000000000000007
61.1667 0.058330000000000215
61.4924 0.09833000000000025
61.818 0.10833000000000004
62.1437 0.10499999999999998
62.4671 0.12166000000000032
62.7927 0.08000000000000007
63.1183 0.1299999999999999
63.4439 0.12166000000000032
63.7695 0.07665999999999995
64.0951 0.08666000000000018
64.4206 0.10333000000000014
64.744 0.08333000000000013
65.0696 0.11166000000000009
65.3951 0.05500000000000016
65.7206 0.0950000000000002
66.0461 0.08333000000000013
66.3716 0.08833000000000002
66.6971 0.08000000000000007
67.0204 0.09332999999999991
67.3459 0.07833000000000023
67.6713 0.0733299999999999
67.9967 0.1016600000000003
68.3222 0.0733299999999999
68.6476 0.08000000000000007
68.9708 0.08833000000000002
69.2962 0.08000000000000007
69.6216 0.09833000000000025
69.9469 0.10833000000000004
70.2723 0.08499999999999996
70.5976 0.09833000000000025
70.9208 0.07665999999999995
71.2461 0.08666000000000018
71.5715 0.06333000000000011
71.8968 0.12166000000000032
72.222 0.09665999999999997
72.5452 0.11000000000000032
72.8704 0.09665999999999997
73.1957 0.11000000000000032
73.5209 0.1200000000000001
73.8462 0.10333000000000014
74.1692 0.11166000000000009
74.4944 0.1200000000000001
74.8196 0.1299999999999999
75.1448 0.125
75.4678 0.1016600000000003
75.793 0.0950000000000002
76.1182 0.08333000000000013
76.4433 0.13500000000000023
76.7684 0.15666000000000002
77.0914 0.16666000000000025
77.4165 0.14500000000000002
77.7416 0.15166000000000013
78.0667 0.17332999999999998
78.3896 0.16000000000000014
78.7147 0.15666000000000002
79.0397 0.16165999999999991
79.3648 0.12333000000000016
79.6876 0.1583300000000003
80.0127 0.125
80.3377 0.12833000000000006
80.6627 0.13666
80.9855 0.1416599999999999
81.3105 0.13666
81.6354 0.1299999999999999
81.9604 0.10333000000000014
82.2832 0.1066600000000002
82.6081 0.08166000000000029
82.933 0.0900000000000003
83.2558 0.09166000000000007
83.5807 0.08000000000000007
83.9055 0.08833000000000002
84.2304 0.07833000000000023
84.5531 0.0900000000000003
84.878 0.07500000000000018
85.2028 0.08166000000000029
85.5255 0.050000000000000266
85.8503 0.07166000000000006
86.1751 0.06499999999999995
86.4978 0.06666000000000016
86.8225 0.08333000000000013
87.1473 0.06833
87.4721 0.07665999999999995
87.7947 0.04499999999999993
88.1194 0.05166000000000004
88.4441 0.06499999999999995
88.7667 0.06000000000000005
89.0914 0.05665999999999993
89.4161 0.03166000000000002
89.7386 0.05665999999999993
90.0633 0.06000000000000005
90.3879 0.05665999999999993
90.7104 0.06000000000000005
91.0351 0.05333000000000032
91.3597 0.058330000000000215
91.6822 0.05333000000000032
92.0068 0.058330000000000215
92.3314 0.04499999999999993
92.6538 0.04333000000000009
92.9784 0.046660000000000146
93.3029 0.05500000000000016
93.6253 0.050000000000000266
93.9499 0.050000000000000266
94.2722 0.07500000000000018
94.5967 0.036659999999999915
94.9212 0.06333000000000011
95.2436 0.05166000000000004
95.5681 0.021660000000000235
95.8925 0.023330000000000073
96.2149 0.013330000000000286
96.5393 0.04166000000000025
96.8616 0.06499999999999995
97.186 0.06499999999999995
97.5104 0.0733299999999999
97.8327 0.021660000000000235
98.1571 0.04499999999999993
98.4814 0.04499999999999993
98.8037 0.046660000000000146
99.128 0.04333000000000009
99.4502 0.026660000000000128
99.7746 0.048329999999999984
100.099 0.03500000000000014
100.421 0.06499999999999995
100.745 0.04166000000000025
101.067 0.06000000000000005
101.392 0.033330000000000304
101.714 0.050000000000000266
102.038 0.04333000000000009
102.362 0.036659999999999915
102.684 0.0383300000000002
103.009 0.04333000000000009
103.331 0.023330000000000073
103.655 0.0383300000000002
103.977 0.03500000000000014
104.301 0.06333000000000011
104.625 0.01833000000000018
104.947 0.02499999999999991
105.271 0.040000000000000036
105.593 0.050000000000000266
105.918 0.050000000000000266
106.24 0.06666000000000016
106.564 0.033330000000000304
106.886 0.06666000000000016
107.21 0.05333000000000032
107.534 0.0733299999999999
107.856 0.07833000000000023
108.18 0.06666000000000016
108.502 0.04166000000000025
108.826 0.03000000000000025
109.147 0.05665999999999993
109.471 0.07166000000000006
109.793 0.06333000000000011
110.117 0.048329999999999984
110.439 0.07000000000000028
110.763 0.050000000000000266
111.085 0.03500000000000014
111.409 0.046660000000000146
111.731 0.07000000000000028
112.054 0.058330000000000215
112.376 0.05333000000000032
112.7 0.04499999999999993
113.022 0.058330000000000215
113.346 0.06499999999999995
113.667 0.08666000000000018
113.991 0.05166000000000004
114.313 0.046660000000000146
114.637 0.06166000000000027
114.958 0.048329999999999984
115.282 0.0733299999999999
115.604 0.05166000000000004
115.928 0.050000000000000266
116.249 0.03000000000000025
116.573 0.04333000000000009
116.895 0.05333000000000032
117.216 0.04333000000000009
117.54 0.05166000000000004
117.862 0.08000000000000007
118.185 0.048329999999999984
118.507 0.0733299999999999
118.83 0.0383300000000002
119.152 0.050000000000000266
119.476 0.058330000000000215
119.797 0.058330000000000215
120.121 0.040000000000000036
120.442 0.05333000000000032
120.764 0.06833
121.087 0.07665999999999995
121.409 0.07665999999999995
121.732 0.050000000000000266
122.054 0.06666000000000016
122.377 0.04499999999999993
122.699 0.05333000000000032
123.02 0.048329999999999984
123.344 0.05166000000000004
123.665 0.08166000000000029
123.988 0.06666000000000016
124.31 0.050000000000000266
124.631 0.03500000000000014
124.955 0.048329999999999984
125.276 0.0733299999999999
125.599 0.06666000000000016
125.921 0.04333000000000009
126.242 0.06000000000000005
126.565 0.02499999999999991
126.887 0.04166000000000025
127.21 0.016659999999999897
127.531 0.050000000000000266
127.852 0.05333000000000032
128.176 0.048329999999999984
128.497 0.04333000000000009
128.82 0.046660000000000146
129.141 0.058330000000000215
129.463 0.05665999999999993
129.786 0.04499999999999993
130.107 0.026660000000000128
130.428 0.05166000000000004
130.751 0.0383300000000002
131.073 0.028329999999999966
131.394 0.021660000000000235
131.717 0.04333000000000009
132.038 0.05500000000000016
132.361 0.0383300000000002
132.682 0.06333000000000011
133.003 0.03000000000000025
133.326 0.0383300000000002
133.647 0.036659999999999915
133.969 0.033330000000000304
134.292 0.040000000000000036
134.613 0.03166000000000002
134.934 0.0383300000000002
135.257 0.0383300000000002
135.578 0.06166000000000027
135.899 0.04166000000000025
136.22 0.0383300000000002
136.543 0.04333000000000009
136.864 0.04333000000000009
137.184 0.03500000000000014
137.507 0.046660000000000146
137.828 0.04166000000000025
138.149 0.05333000000000032
138.472 0.04333000000000009
138.793 0.036659999999999915
139.114 0.028329999999999966
139.437 0.033330000000000304
139.758 0.013330000000000286
140.078 0.03000000000000025
140.399 0.026660000000000128
140.722 0.02499999999999991
141.043 0.040000000000000036
141.364 0.050000000000000266
141.687 0.028329999999999966
142.007 0.021660000000000235
142.328 0.016659999999999897
142.649 0.021660000000000235
142.972 0.040000000000000036
143.292 0.01833000000000018
143.613 0.033330000000000304
143.934 0.04166000000000025
144.256 0.0383300000000002
144.577 0.040000000000000036
144.898 0.0383300000000002
145.218 0.03000000000000025
145.541 0.033330000000000304
145.862 0.020000000000000018
146.182 0.050000000000000266
146.503 0.048329999999999984
146.826 0.04499999999999993
147.146 0.013330000000000286
147.467 0.03500000000000014
147.787 0.00666000000000011
148.11 0.023330000000000073
148.43 0.033330000000000304
148.751 0.05166000000000004
149.071 0.033330000000000304
149.392 0.015000000000000124
149.715 0.04333000000000009
150.035 0.026660000000000128
150.355 0.04166000000000025
150.676 0.026660000000000128
150.996 0.03000000000000025
151.319 0.046660000000000146
151.639 0.040000000000000036
151.96 0.05665999999999993
152.28 0.01833000000000018
152.6 0.048329999999999984
152.923 0.011660000000000004
153.243 0.026660000000000128
153.564 0.033330000000000304
153.884 0.040000000000000036
154.204 0.016659999999999897
154.527 0.05166000000000004
154.847 0.036659999999999915
155.167 0.021660000000000235
155.488 0.03500000000000014
155.808 0.04166000000000025
156.128 0.04333000000000009
156.45 0.021660000000000235
156.771 0.026660000000000128
157.091 0.01833000000000018
157.411 0.03500000000000014
157.731 0.050000000000000266
158.052 0.021660000000000235
158.372 0.033330000000000304
158.694 0.046660000000000146
159.014 0.023330000000000073
159.334 0.010000000000000231
159.654 0.04333000000000009
159.975 0.016659999999999897
160.295 0.03000000000000025
160.615 0.04499999999999993
160.937 0.03166000000000002
161.257 0.05166000000000004
161.577 0.028329999999999966
161.897 0.021660000000000235
162.217 0.04333000000000009
162.537 0.028329999999999966
162.857 0.06833
163.177 0.016659999999999897
163.499 0.010000000000000231
163.819 0.020000000000000018
164.139 0.03166000000000002
164.459 0.04166000000000025
164.779 0.03500000000000014
165.099 0.036659999999999915
165.419 0.04166000000000025
165.739 0.03500000000000014
166.059 0.026660000000000128
166.379 0.04333000000000009
166.699 0.033330000000000304
167.021 0.04166000000000025
167.341 0.05166000000000004
167.661 0.013330000000000286
167.98 0.011660000000000004
168.3 0.033330000000000304
168.62 0.03000000000000025
168.94 0.023330000000000073
169.26 0.020000000000000018
169.58 0.0016600000000002169
169.899 0.05166000000000004
170.219 0.023330000000000073
170.539 0.02499999999999991
170.859 0.013330000000000286
171.178 0.03500000000000014
171.498 0.03500000000000014
171.818 0.04166000000000025
172.137 0.05166000000000004
172.459 0.04499999999999993
172.779 0.0383300000000002
173.099 0.011660000000000004
173.418 0.033330000000000304
173.738 0.05665999999999993
174.058 0.023330000000000073
174.377 0.033330000000000304
174.697 0.0016600000000002169
175.016 0.028329999999999966
175.336 0.026660000000000128
175.656 0.033330000000000304
175.975 0.028329999999999966
176.295 0.020000000000000018
176.614 0.03000000000000025
176.934 0.028329999999999966
177.253 0.015000000000000124
177.573 0.026660000000000128
177.892 0.01833000000000018
178.212 0.023330000000000073
178.531 0.02499999999999991
178.851 0.015000000000000124
179.17 0.028329999999999966
179.49 0.02499999999999991
179.809 0.036659999999999915
180.129 0.03500000000000014
180.448 0.02499999999999991
180.767 0.016659999999999897
181.087 0.020000000000000018
181.406 0.0
181.726 0.05166000000000004
182.045 0.021660000000000235
182.362 0.036659999999999915
182.682 0.01833000000000018
183.001 0.03166000000000002
183.32 0.040000000000000036
183.64 0.040000000000000036
183.959 0.016659999999999897
184.278 0.03500000000000014
184.597 0.033330000000000304
184.917 0.036659999999999915
185.236 0.026660000000000128
185.555 0.033330000000000304
185.874 0.04166000000000025
186.194 0.03000000000000025
186.513 0.03000000000000025
186.832 0.01833000000000018
187.151 0.021660000000000235
187.47 0.03500000000000014
187.787 0.033330000000000304
188.107 0.016659999999999897
188.426 0.016659999999999897
188.745 0.05166000000000004
189.064 0.05166000000000004
189.383 0.016659999999999897
189.702 0.046660000000000146
190.021 0.03000000000000025
190.34 0.021660000000000235
190.66 0.04499999999999993
190.976 0.020000000000000018
191.296 0.03000000000000025
191.615 0.03500000000000014
191.934 0.05166000000000004
192.253 0.01833000000000018
192.572 0.05333000000000032
192.891 0.04499999999999993
193.21 0.00666000000000011
193.529 0.036659999999999915
193.845 0.021660000000000235
194.164 0.040000000000000036
194.483 0.03718110490460447
194.802 0.03705184888819524
195.121 0.03699034027744208
195.44 0.037044426129883234
195.759 0.03708353507029072
196.076 0.03500000000000014
196.395 0.05166000000000004
196.713 0.0383300000000002
197.032 0.02499999999999991
197.351 0.010000000000000231
197.67 0.040000000000000036
197.987 0.0383300000000002
198.305 0.036659999999999915
198.624 0.03166000000000002
198.943 0.048329999999999984
199.262 0.046660000000000146
199.581 0.040000000000000036
199.897 0.021660000000000235
200.216 0.05166000000000004
200.535 0.03166000000000002
200.853 0.04333000000000009
201.172 0.058330000000000215
201.491 0.028329999999999966
201.807 0.06166000000000027
202.126 0.046660000000000146
202.445 0.04166000000000025
202.763 0.04499999999999993
203.082 0.033330000000000304
203.399 0.02499999999999991
203.717 0.016659999999999897
204.036 0.028329999999999966
204.354 0.016659999999999897
204.673 0.050000000000000266
204.989 0.0383300000000002
205.308 0.050000000000000266
205.627 0.03166000000000002
205.945 0.04333000000000009
206.262 0.046660000000000146
206.58 0.021660000000000235
206.899 0.036659999999999915
207.217 0.03000000000000025
207.533 0.03500000000000014
207.852 0.03000000000000025
208.17 0.05333000000000032
208.489 0.0383300000000002
208.805 0.05500000000000016
209.124 0.03500000000000014
209.442 0.048329999999999984
209.761 0.03166000000000002
210.077 0.040000000000000036
210.395 0.0383300000000002
210.714 0.020000000000000018
211.032 0.05500000000000016
211.348 0.03500000000000014
211.667 0.03166000000000002
211.985 0.033330000000000304
212.303 0.03000000000000025
212.619 0.05333000000000032
212.938 0.05665999999999993
213.256 0.008329999999999949
213.572 0.04333000000000009
213.89 0.021660000000000235
214.209 0.048329999999999984
214.527 0.046660000000000146
214.843 0.013330000000000286
215.161 0.05665999999999993
215.48 0.048329999999999984
215.796 0.03166000000000002
216.114 0.046660000000000146
216.432 0.05500000000000016
216.748 0.050000000000000266
217.066 0.03500000000000014
217.384 0.05665999999999993
217.703 0.04166000000000025
218.019 0.04499999999999993
218.337 0.046660000000000146
218.655 0.06666000000000016
218.971 0.036659999999999915
219.289 0.06666000000000016
219.607 0.04333000000000009
219.923 0.0383300000000002
220.241 0.046660000000000146
220.559 0.04166000000000025
220.875 0.04499999999999993
221.193 0.04499999999999993
221.511 0.0383300000000002
221.827 0.07500000000000018
222.145 0.06666000000000016
222.461 0.06666000000000016
222.779 0.04499999999999993
223.097 0.033330000000000304
223.413 0.023330000000000073
223.731 0.05166000000000004
224.048 0.06333000000000011
224.364 0.050000000000000266
224.682 0.06666000000000016
225.0 0.06166000000000027
225.316 0.04166000000000025
225.634 0.06333000000000011
225.949 0.06499999999999995
226.267 0.07166000000000006
226.585 0.046660000000000146
226.901 0.040000000000000036
227.219 0.048329999999999984
227.534 0.0950000000000002
227.852 0.058330000000000215
228.17 0.04333000000000009
228.486 0.058330000000000215
228.803 0.048329999999999984
229.119 0.05665999999999993
229.437 0.046660000000000146
229.755 0.06666000000000016
230.07 0.04333000000000009
230.388 0.07000000000000028
230.703 0.06000000000000005
231.021 0.06166000000000027
231.337 0.06499999999999995
231.654 0.06499999999999995
231.972 0.06833
232.288 0.07166000000000006
232.605 0.06666000000000016
232.921 0.06000000000000005
233.238 0.08833000000000002
233.554 0.05665999999999993
233.871 0.05333000000000032
234.189 0.0733299999999999
234.504 0.046660000000000146
234.822 0.08000000000000007
235.137 0.06166000000000027
235.455 0.050000000000000266
235.77 0.08166000000000029
236.088 0.06000000000000005
236.403 0.03500000000000014
236.721 0.05166000000000004
237.036 0.06000000000000005
237.354 0.08333000000000013
237.669 0.040000000000000036
237.986 0.06666000000000016
238.302 0.05166000000000004
238.619 0.046660000000000146
238.935 0.048329999999999984
239.252 0.040000000000000036
239.567 0.050000000000000266
239.885 0.04166000000000025
240.202 0.07000000000000028
240.517 0.07000000000000028
240.833 0.040000000000000036
241.15 0.05665999999999993
241.465 0.033330000000000304
241.782 0.058330000000000215
242.098 0.058330000000000215
242.415 0.0383300000000002
242.73 0.036659999999999915
243.047 0.05166000000000004
243.363 0.016659999999999897
243.68 0.046660000000000146
243.995 0.023330000000000073
244.312 0.016659999999999897
244.627 0.03500000000000014
244.945 0.046660000000000146
245.26 0.036659999999999915
245.577 0.04166000000000025
245.892 0.026660000000000128
246.209 0.06166000000000027
246.524 0.06833
246.839 0.033330000000000304
247.156 0.05333000000000032
247.471 0.050000000000000266
247.788 0.01833000000000018
248.103 0.05333000000000032
248.421 0.03500000000000014
248.735 0.033330000000000304
249.053 0.036659999999999915
249.368 0.03500000000000014
249.682 0.03500000000000014
249.999 0.023330000000000073
250.314 0.050000000000000266
250.631 0.048329999999999984
250.946 0.04333000000000009
251.261 0.046660000000000146
251.578 0.036659999999999915
251.893 0.02499999999999991
252.21 0.06000000000000005
252.525 0.04499999999999993
252.842 0.05166000000000004
253.157 0.048329999999999984
253.472 0.048329999999999984
253.788 0.048329999999999984
254.103 0.050000000000000266
254.418 0.04499999999999993
254.735 0.03500000000000014
255.05 0.03000000000000025
255.367 0.058330000000000215
255.681 0.07166000000000006
255.996 0.048329999999999984
256.313 0.048329999999999984
256.628 0.03166000000000002
256.942 0.01833000000000018
257.259 0.06000000000000005
257.574 0.046660000000000146
257.89 0.033330000000000304
258.205 0.01833000000000018
258.52 0.0383300000000002
258.837 0.04499999999999993
259.151 0.058330000000000215
259.466 0.046660000000000146
259.782 0.0383300000000002
260.097 0.05333000000000032
260.412 0.03500000000000014
260.728 0.026660000000000128
261.043 0.048329999999999984
261.357 0.0383300000000002
261.674 0.06666000000000016
261.989 0.05166000000000004
262.303 0.02499999999999991
262.62 0.0383300000000002
262.934 0.0383300000000002
263.249 0.05665999999999993
263.565 0.046660000000000146
263.88 0.00666000000000011
264.194 0.06499999999999995
264.511 0.05333000000000032
264.825 0.040000000000000036
265.14 0.03500000000000014
265.454 0.04333000000000009
265.771 0.05333000000000032
266.085 0.028329999999999966
266.399 0.046660000000000146
266.716 0.05500000000000016
267.03 0.03000000000000025
267.344 0.03500000000000014
267.659 0.06499999999999995
267.975 0.06333000000000011
268.29 0.06000000000000005
268.604 0.023330000000000073
268.92 0.04499999999999993
269.235 0.058330000000000215
269.549 0.015000000000000124
269.863 0.06166000000000027
270.179 0.028329999999999966
270.494 0.06166000000000027
270.808 0.07000000000000028
271.122 0.058330000000000215
271.438 0.05665999999999993
271.753 0.03166000000000002
272.067 0.02499999999999991
272.381 0.023330000000000073
272.697 0.06499999999999995
273.011 0.05665999999999993
273.326 0.03166000000000002
273.64 0.07833000000000023
273.956 0.06333000000000011
274.27 0.046660000000000146
274.584 0.05166000000000004
274.898 0.06000000000000005
275.212 0.04166000000000025
275.528 0.040000000000000036
275.843 0.08000000000000007
276.157 0.033330000000000304
276.471 0.03000000000000025
276.787 0.04166000000000025
277.101 0.04499999999999993
277.415 0.046660000000000146
277.729 0.06499999999999995
278.043 0.050000000000000266
278.359 0.05166000000000004
278.673 0.06333000000000011
278.987 0.05333000000000032
279.301 0.06166000000000027
279.615 0.048329999999999984
279.929 0.05665999999999993
280.245 0.04499999999999993
280.558 0.06666000000000016
280.872 0.07166000000000006
281.186 0.06833
281.5 0.06666000000000016
281.814 0.05166000000000004
282.13 0.048329999999999984
282.444 0.050000000000000266
282.758 0.06000000000000005
283.071 0.06166000000000027
283.385 0.03166000000000002
283.699 0.06166000000000027
284.015 0.0900000000000003
284.329 0.06833
284.642 0.07000000000000028
284.956 0.05665999999999993
285.27 0.05333000000000032
285.584 0.06833
285.897 0.05500000000000016
286.213 0.07000000000000028
286.527 0.06000000000000005
286.841 0.07000000000000028
287.154 0.05665999999999993
287.468 0.05500000000000016
287.782 0.0383300000000002
288.095 0.06666000000000016
288.409 0.05665999999999993
288.722 0.05166000000000004
289.038 0.058330000000000215
289.352 0.07000000000000028
289.665 0.05665999999999993
289.979 0.06166000000000027
290.293 0.0733299999999999
290.606 0.06499999999999995
290.92 0.04166000000000025
291.233 0.046660000000000146
291.547 0.07000000000000028
291.86 0.0950000000000002
292.176 0.06666000000000016
292.489 0.06000000000000005
292.803 0.06833
293.116 0.06666000000000016
293.43 0.07500000000000018
293.743 0.06666000000000016
294.057 0.07665999999999995
294.37 0.05166000000000004
294.683 0.05333000000000032
294.997 0.048329999999999984
295.31 0.05166000000000004
295.624 0.058330000000000215
295.937 0.08000000000000007
296.25 0.050000000000000266
296.564 0.08000000000000007
296.877 0.05665999999999993
297.19 0.07500000000000018
297.504 0.05333000000000032
297.819 0.0733299999999999
298.133 0.0733299999999999
298.446 0.06000000000000005
298.759 0.07166000000000006
299.072 0.0733299999999999
299.386 0.05333000000000032
299.699 0.06000000000000005
300.012 0.058330000000000215
300.325 0.058330000000000215
300.639 0.06000000000000005
300.952 0.08333000000000013
301.265 0.09166000000000007
301.578 0.05665999999999993
301.891 0.050000000000000266
302.205 0.058330000000000215
302.518 0.08166000000000029
302.831 0.06000000000000005
303.144 0.08499999999999996
303.457 0.08666000000000018
303.77 0.10000000000000009
304.083 0.08499999999999996
304.396 0.07500000000000018
304.709 0.0733299999999999
305.023 0.07665999999999995
305.336 0.08333000000000013
305.649 0.08166000000000029
305.962 0.05333000000000032
306.273 0.08333000000000013
306.586 0.06666000000000016
306.899 0.08333000000000013
307.212 0.07166000000000006
307.525 0.09166000000000007
307.838 0.07166000000000006
308.151 0.07500000000000018
308.464 0.05500000000000016
308.777 0.07500000000000018
309.089 0.08166000000000029
309.402 0.09166000000000007
309.715 0.0733299999999999
310.028 0.07665999999999995
310.341 0.0950000000000002
310.654 0.07000000000000028
310.967 0.06833
311.28 0.06166000000000027
311.593 0.07665999999999995
311.903 0.0900000000000003
312.216 0.09665999999999997
312.529 0.08666000000000018
312.842 0.08499999999999996
313.155 0.08833000000000002
313.467 0.10000000000000009
313.78 0.10833000000000004
314.093 0.07833000000000023
314.406 0.09166000000000007
314.718 0.07833000000000023
315.029 0.08833000000000002
315.342 0.07000000000000028
315.654 0.09332999999999991
315.967 0.07833000000000023
316.28 0.09332999999999991
316.593 0.08333000000000013
316.905 0.08166000000000029
317.218 0.09833000000000025
317.531 0.0950000000000002
317.841 0.09833000000000025
318.154 0.11332999999999993
318.466 0.09332999999999991
318.779 0.08833000000000002
319.092 0.10499999999999998
319.404 0.09665999999999997
319.717 0.10000000000000009
320.027 0.09166000000000007
320.34 0.09833000000000025
320.652 0.11332999999999993
320.965 0.1066600000000002
321.277 0.06666000000000016
321.59 0.08666000000000018
321.9 0.0900000000000003
322.213 0.08833000000000002
322.525 0.09332999999999991
322.838 0.09332999999999991
323.15 0.08166000000000029
323.463 0.10333000000000014
323.773 0.07665999999999995
324.085 0.08833000000000002
324.398 0.1066600000000002
324.71 0.09833000000000025
325.023 0.10333000000000014
325.333 0.09665999999999997
325.645 0.11332999999999993
325.958 0.0733299999999999
326.27 0.11332999999999993
326.582 0.09166000000000007
326.893 0.09833000000000025
327.205 0.07500000000000018
327.517 0.11665999999999999
327.83 0.10000000000000009
328.142 0.09665999999999997
328.452 0.11332999999999993
328.764 0.10333000000000014
329.077 0.11000000000000032
329.389 0.11166000000000009
329.701 0.1016600000000003
330.011 0.1016600000000003
330.323 0.11833000000000027
330.636 0.14833000000000007
330.948 0.09332999999999991
331.258 0.12166000000000032
331.57 0.12833000000000006
331.882 0.11665999999999999
332.194 0.11000000000000032
332.504 0.11500000000000021
332.817 0.09332999999999991
333.129 0.12166000000000032
333.441 0.1316600000000001
333.751 0.12666000000000022
334.063 0.1299999999999999
334.375 0.1200000000000001
334.685 0.1299999999999999
334.997 0.0900000000000003
335.309 0.12666000000000022
335.621 0.12333000000000016
335.931 0.10333000000000014
336.243 0.1316600000000001
336.555 0.12666000000000022
336.867 0.125
337.177 0.1316600000000001
337.489 0.12833000000000006
337.801 0.11000000000000032
338.111 0.12666000000000022
338.423 0.13833000000000029
338.735 0.14666000000000023
339.045 0.13666
339.356 0.11332999999999993
339.668 0.15332999999999997
339.978 0.1416599999999999
340.29 0.14000000000000012
340.602 0.125
340.914 0.1499999999999999
341.224 0.12833000000000006
341.535 0.13833000000000029
341.847 0.13332999999999995
342.157 0.1416599999999999
342.469 0.1316600000000001
342.781 0.11833000000000027
343.09 0.11500000000000021
343.402 0.14333000000000018
343.714 0.16165999999999991
344.023 0.11833000000000027
344.335 0.14666000000000023
344.645 0.15500000000000025
344.957 0.13500000000000023
345.268 0.12166000000000032
345.578 0.13332999999999995
345.89 0.14333000000000018
346.201 0.16500000000000004
346.511 0.15166000000000013
346.823 0.15332999999999997
347.134 0.16666000000000025
347.444 0.12333000000000016
347.755 0.13833000000000029
348.065 0.16666000000000025
348.376 0.10833000000000004
348.688 0.1583300000000003
348.998 0.16999999999999993
349.309 0.14000000000000012
349.619 0.1583300000000003
349.93 0.1416599999999999
350.242 0.16000000000000014
350.551 0.17166000000000015
350.863 0.1633300000000002
351.172 0.1883300000000001
351.484 0.1683300000000001
351.795 0.16165999999999991
352.105 0.17332999999999998
352.416 0.16000000000000014
352.725 0.14666000000000023
353.037 0.15166000000000013
353.346 0.18165999999999993
353.658 0.13666
353.969 0.17332999999999998
354.278 0.18000000000000016
354.59 0.17332999999999998
354.899 0.18000000000000016
355.211 0.16000000000000014
355.52 0.18165999999999993
355.831 0.1583300000000003
356.142 0.13332999999999995
356.452 0.1633300000000002
356.763 0.18165999999999993
357.072 0.18500000000000005
357.384 0.1633300000000002
357.693 0.18000000000000016
358.004 0.17833000000000032
358.313 0.14833000000000007
358.625 0.1416599999999999
358.934 0.1583300000000003
359.245 0.1633300000000002
359.554 0.19333
359.865 0.15500000000000025
360.174 0.17166000000000015
360.486 0.17332999999999998
360.795 0.18000000000000016
361.106 0.15666000000000002
361.415 0.18999999999999995
361.726 0.16666000000000025
362.035 0.19666000000000006
362.346 0.19166000000000016
362.655 0.19666000000000006
362.967 0.17666000000000004
363.276 0.16999999999999993
363.587 0.16500000000000004
363.896 0.15166000000000013
364.207 0.14833000000000007
364.516 0.1316600000000001
364.827 0.17166000000000015
365.136 0.13666
365.447 0.18999999999999995
365.756 0.17332999999999998
366.067 0.15666000000000002
366.376 0.16999999999999993
366.687 0.20999999999999996
366.996 0.17332999999999998
367.307 0.17166000000000015
367.615 0.13666
367.924 0.1583300000000003
368.235 0.18000000000000016
368.544 0.15666000000000002
368.855 0.15332999999999997
369.164 0.15332999999999997
369.475 0.16165999999999991
369.784 0.1683300000000001
370.094 0.18000000000000016
370.403 0.15332999999999997
370.712 0.19166000000000016
371.023 0.14333000000000018
371.332 0.15666000000000002
371.642 0.1633300000000002
371.951 0.18333000000000022
372.262 0.14333000000000018
372.571 0.16666000000000025
372.879 0.18333000000000022
373.19 0.18999999999999995
373.499 0.16000000000000014
373.81 0.14666000000000023
374.118 0.18500000000000005
374.427 0.14833000000000007
374.738 0.18165999999999993
375.046 0.15666000000000002
375.357 0.1683300000000001
375.666 0.17500000000000027
375.974 0.18999999999999995
376.285 0.18165999999999993
376.593 0.1583300000000003
376.902 0.18500000000000005
377.213 0.16500000000000004
377.521 0.20165999999999995
377.832 0.19333
378.14 0.14500000000000002
378.449 0.17166000000000015
378.759 0.15666000000000002
379.068 0.18000000000000016
379.376 0.14000000000000012
379.687 0.1983299999999999
379.995 0.15500000000000025
380.304 0.19333
380.614 0.18999999999999995
380.923 0.17666000000000004
381.231 0.17332999999999998
381.542 0.19666000000000006
381.85 0.20833000000000013
382.159 0.17833000000000032
382.469 0.18333000000000022
382.777 0.2183299999999999
383.086 0.2183299999999999
383.396 0.17666000000000004
383.705 0.2250000000000001
384.013 0.2066600000000003
384.323 0.20999999999999996
384.632 0.18666000000000027
384.94 0.20165999999999995
385.25 0.1983299999999999
385.559 0.17666000000000004
385.867 0.1883300000000001
386.175 0.20500000000000007
386.485 0.20500000000000007
386.794 0.20333000000000023
387.102 0.20000000000000018
387.412 0.2066600000000003
387.72 0.2366600000000001
388.029 0.21666000000000007
388.337 0.19500000000000028
388.647 0.20500000000000007
388.955 0.20500000000000007
389.263 0.1883300000000001
389.571 0.20833000000000013
389.882 0.21166000000000018
390.19 0.21666000000000007
390.498 0.24165999999999999
390.808 0.2200000000000002
391.116 0.23500000000000032
391.424 0.2266600000000003
391.732 0.19500000000000028
392.042 0.22999999999999998
392.351 0.20833000000000013
392.659 0.2549999999999999
392.967 0.23500000000000032
393.275 0.23333000000000004
393.585 0.21166000000000018
393.893 0.24165999999999999
394.201 0.22833000000000014
394.509 0.22833000000000014
394.819 0.24333000000000027
395.127 0.2549999999999999
395.435 0.24833000000000016
395.743 0.2566600000000001
396.051 0.2250000000000001
396.361 0.2666599999999999
396.668 0.2666599999999999
396.976 0.2250000000000001
397.284 0.2666599999999999
397.592 0.2266600000000003
397.902 0.23333000000000004
398.21 0.2549999999999999
398.518 0.2516600000000002
398.826 0.27666000000000013
399.133 0.25333000000000006
399.443 0.2633300000000003
399.751 0.24333000000000027
400.059 0.2516600000000002
400.367 0.2633300000000003
400.674 0.2549999999999999
400.982 0.26000000000000023
401.292 0.25832999999999995
401.6 0.22833000000000014
401.908 0.28000000000000025
402.215 0.2933300000000001
402.523 0.2450000000000001
402.831 0.27832999999999997
403.14 0.2683300000000002
403.448 0.28500000000000014
403.756 0.29666000000000015
404.063 0.27166000000000023
404.371 0.2833300000000003
404.679 0.28000000000000025
404.986 0.24165999999999999
405.296 0.29166000000000025
405.604 0.27832999999999997
405.911 0.25832999999999995
406.219 0.29666000000000015
406.526 0.30500000000000016
406.834 0.2749999999999999
407.142 0.2733300000000001
407.449 0.29833
407.759 0.2866599999999999
408.066 0.30166000000000004
408.374 0.28500000000000014
408.681 0.2933300000000001
408.989 0.28500000000000014
409.296 0.2883300000000002
409.604 0.3133300000000001
409.911 0.3200000000000003
410.219 0.27832999999999997
410.526 0.31666000000000016
410.834 0.30665999999999993
411.143 0.31000000000000005
411.45 0.2933300000000001
411.758 0.3200000000000003
412.065 0.30500000000000016
412.373 0.31666000000000016
412.68 0.32665999999999995
412.987 0.29166000000000025
413.295 0.33000000000000007
413.602 0.2883300000000002
413.909 0.2833300000000003
414.217 0.30000000000000027
414.524 0.2933300000000001
414.831 0.3083300000000002
415.139 0.33000000000000007
415.446 0.29499999999999993
415.753 0.30500000000000016
416.06 0.30500000000000016
416.37 0.26166
416.677 0.2650000000000001
416.984 0.32665999999999995
417.291 0.2866599999999999
417.599 0.3200000000000003
417.906 0.32833000000000023
418.213 0.32166000000000006
418.52 0.2733300000000001
418.827 0.3083300000000002
419.135 0.3250000000000002
419.442 0.29000000000000004
419.749 0.3083300000000002
420.056 0.29166000000000025
420.363 0.29166000000000025
420.67 0.27
420.977 0.3233299999999999
421.284 0.29833
421.591 0.31000000000000005
421.899 0.3033300000000003
422.206 0.29000000000000004
422.513 0.31000000000000005
422.82 0.30500000000000016
423.127 0.2883300000000002
423.434 0.29499999999999993
423.741 0.28500000000000014
424.048 0.29833
424.355 0.3233299999999999
424.662 0.2833300000000003
424.967 0.2833300000000003
425.274 0.30665999999999993
425.58 0.29499999999999993
425.887 0.29666000000000015
426.194 0.2733300000000001
426.501 0.2666599999999999
426.808 0.31166000000000027
427.115 0.26000000000000023
427.422 0.29499999999999993
427.729 0.2549999999999999
428.036 0.3083300000000002
428.342 0.25333000000000006
428.649 0.2666599999999999
428.956 0.29166000000000025
429.263 0.27
429.57 0.2549999999999999
429.875 0.2400000000000002
430.181 0.2400000000000002
430.488 0.27
430.795 0.29166000000000025
431.102 0.2883300000000002
431.408 0.2633300000000003
431.715 0.2749999999999999
432.022 0.25832999999999995
432.329 0.25832999999999995
432.635 0.2733300000000001
432.942 0.2650000000000001
433.247 0.26166
433.553 0.2516600000000002
433.86 0.28166
434.167 0.2650000000000001
434.473 0.27
434.78 0.26166
435.087 0.2650000000000001
435.393 0.2566600000000001
435.698 0.25832999999999995
436.004 0.25333000000000006
436.311 0.22999999999999998
436.617 0.2683300000000002
436.924 0.2566600000000001
437.231 0.24666000000000032
437.537 0.2683300000000002
437.842 0.24833000000000016
438.148 0.21333000000000002
438.455 0.24666000000000032
438.761 0.2516600000000002
439.068 0.25832999999999995
439.374 0.23333000000000004
439.681 0.2450000000000001
439.985 0.26166
440.291 0.2400000000000002
440.598 0.2566600000000001
440.904 0.2366600000000001
441.211 0.2566600000000001
441.515 0.22833000000000014
441.822 0.25832999999999995
442.128 0.24666000000000032
442.434 0.23333000000000004
442.741 0.2566600000000001
443.047 0.23832999999999993
443.351 0.22833000000000014
443.658 0.2450000000000001
443.964 0.23333000000000004
444.27 0.23500000000000032
444.575 0.2566600000000001
444.881 0.2566600000000001
445.187 0.2733300000000001
445.493 0.24833000000000016
445.8 0.2549999999999999
446.104 0.21166000000000018
446.41 0.2316600000000002
446.716 0.2066600000000003
447.023 0.22333000000000025
447.327 0.2566600000000001
447.633 0.20000000000000018
447.939 0.23500000000000032
448.245 0.20999999999999996
448.552 0.22999999999999998
448.856 0.2366600000000001
449.162 0.2250000000000001
449.468 0.20999999999999996
449.774 0.2316600000000002
450.078 0.20165999999999995
450.384 0.22833000000000014
450.69 0.23500000000000032
450.994 0.2400000000000002
451.3 0.23333000000000004
451.607 0.24333000000000027
451.913 0.1883300000000001
452.217 0.22999999999999998
452.523 0.2200000000000002
452.829 0.24333000000000027
453.135 0.2150000000000003
453.439 0.22333000000000025
453.745 0.20833000000000013
454.051 0.18000000000000016
454.355 0.24165999999999999
454.661 0.24666000000000032
454.967 0.27
455.27 0.23500000000000032
455.576 0.20999999999999996
455.882 0.2066600000000003
456.188 0.18666000000000027
456.492 0.18999999999999995
456.798 0.2400000000000002
457.104 0.2200000000000002
457.408 0.1883300000000001
457.714 0.2316600000000002
458.019 0.2316600000000002
458.323 0.2250000000000001
458.629 0.20999999999999996
458.935 0.2200000000000002
459.239 0.2266600000000003
459.544 0.22165999999999997
459.85 0.20500000000000007
460.154 0.23333000000000004
460.46 0.20999999999999996
460.766 0.2066600000000003
461.069 0.16999999999999993
461.375 0.19666000000000006
461.681 0.20500000000000007
461.984 0.2183299999999999
462.29 0.20999999999999996
462.594 0.23333000000000004
462.9 0.19166000000000016
463.205 0.2516600000000002
463.509 0.21333000000000002
463.814 0.22999999999999998
464.12 0.2633300000000003
464.424 0.20165999999999995
464.729 0.20165999999999995
465.033 0.22165999999999997
465.339 0.2266600000000003
465.644 0.25333000000000006
465.948 0.26166
466.253 0.24333000000000027
466.557 0.24165999999999999
466.862 0.1983299999999999
467.168 0.22833000000000014
467.471 0.24333000000000027
467.777 0.25333000000000006
468.08 0.22165999999999997
468.386 0.2566600000000001
468.691 0.2316600000000002
468.995 0.22833000000000014
469.3 0.2516600000000002
469.604 0.25832999999999995
469.909 0.26166
470.213 0.25333000000000006
470.518 0.2250000000000001
470.824 0.26000000000000023
471.127 0.2733300000000001
471.432 0.2883300000000002
471.736 0.25832999999999995
472.041 0.22999999999999998
472.344 0.26000000000000023
472.65 0.2666599999999999
472.953 0.2316600000000002
473.258 0.25333000000000006
473.562 0.22833000000000014
473.867 0.24165999999999999
474.172 0.2250000000000001
474.476 0.2650000000000001
474.781 0.2400000000000002
475.084 0.2549999999999999
475.39 0.29000000000000004
475.693 0.25
475.998 0.30500000000000016
476.301 0.3416600000000001
476.606 0.4566600000000003
476.91 0.5333300000000003
477.215 0.50333
477.518 0.5049999999999999
477.823 0.5233300000000001
478.126 0.50333
478.432 0.5066600000000001
478.735 0.5216600000000002
479.04 0.5016600000000002
479.343 0.49333000000000027
479.648 0.49833000000000016
479.951 0.5266600000000001
480.256 0.50333
480.559 0.5249999999999999
480.864 0.50333
481.167 0.4566600000000003
481.47 0.4583300000000001
481.776 0.49833000000000016
482.079 0.5183300000000002
482.384 0.49166
482.687 0.4850000000000003
482.992 0.45165999999999995
483.295 0.4683299999999999
483.6 0.4116599999999999
483.903 0.3400000000000003
484.208 0.29000000000000004
484.51 0.2450000000000001
484.813 0.23333000000000004
485.118 0.2266600000000003
485.421 0.2266600000000003
485.726 0.22333000000000025
486.029 0.2250000000000001
486.334 0.20000000000000018
486.637 0.2250000000000001
486.94 0.2566600000000001
487.245 0.2183299999999999
487.547 0.22999999999999998
487.852 0.22333000000000025
488.155 0.2516600000000002
488.458 0.22333000000000025
488.763 0.22833000000000014
489.066 0.24666000000000032
489.37 0.23500000000000032
489.673 0.23333000000000004
489.976 0.2183299999999999
490.281 0.21666000000000007
490.583 0.24165999999999999
490.888 0.20000000000000018
491.191 0.24165999999999999
491.494 0.21666000000000007
491.798 0.1983299999999999
492.101 0.21166000000000018
492.404 0.20333000000000023
492.708 0.2316600000000002
493.011 0.21166000000000018
493.316 0.20833000000000013
493.56 0.23065363526392593
493.8645 0.24481363526392588
494.17150000000004 0.24565363526392606
494.476 0.24814863526392575
494.781 0.2148186352639259
495.087 0.23148363526392582
495.392 0.23648363526392593
495.697 0.22565363526392582
496.002 0.22148363526392603
496.308 0.21898363526392586
496.61249999999995 0.2273136352639258
496.918 0.22481863526392568
497.2235 0.23231363526392593
497.528 0.23648363526392593
497.83349999999996 0.20398363526392574
498.1385 0.23314863526392585
498.4435 0.24148363526392583
498.7495 0.23898363526392588
499.0535 0.20898363526392585
499.35850000000005 0.23231863526392596
499.6645 0.2456486352639258
499.9695 0.2489836352639259
500.2735 0.23648363526392593
500.578 0.24148363526392583
500.8845 0.239813635263926
501.18899999999996 0.23731863526392585
501.49350000000004 0.21898363526392586
501.799 0.2431536352639259
502.104 0.25398363526392576
502.409 0.23148363526392604
502.71299999999997 0.25231863526392573
503.01800000000003 0.253983635263926
503.32399999999996 0.24231863526392597
503.62800000000004 0.24814863526392597
503.9325 0.22398363526392576
504.238 0.23981363526392577
504.543 0.253983635263926
504.84749999999997 0.23648363526392593
505.15250000000003 0.2556486352639258
505.457 0.2564836352639259
505.7615 0.22898363526392587
506.0665 0.2398186352639258
506.37149999999997 0.22898363526392587
506.67600000000004 0.22731863526392584
506.9805 0.25231863526392573
507.2845 0.25898363526392587
507.58950000000004 0.2406486352639259
507.895 0.23815363526392577
508.199 0.24898363526392567
508.50300000000004 0.2548186352639259
508.8075 0.2431536352639259
509.11400000000003 0.24814863526392597
509.418 0.253983635263926
509.722 0.25898363526392587
510.026 0.2506536352639259
510.33000000000004 0.2506536352639259
510.635 0.2498186352639258
510.94050000000004 0.2606536352639257
511.2445 0.2698186352639258
511.5485 0.24565363526392583
511.8525 0.2656486352639258
512.1575 0.2798186352639258
512.4615 0.2698186352639258
512.7665 0.28065363526392595
513.0705 0.26815363526392577
513.3745 0.29148363526392584
513.6795 0.26231863526392596
513.9835 0.27565363526392583
514.1345 0.27565363526392583
514.4385 0.26981363526392577
514.7425000000001 0.2648136352639259
515.0475 0.275648635263926
515.3525 0.263983635263926
515.6565 0.2731536352639259
515.9605 0.2756486352639258
516.2645 0.259813635263926
516.5685000000001 0.26231863526392574
516.8725 0.293983635263926
517.1769999999999 0.2623136352639257
517.482 0.25314863526392584
517.7860000000001 0.2739836352639258
518.09 0.29564863526392604
518.394 0.2839836352639258
518.6975 0.27731863526392586
519.0015 0.28731363526392584
519.3054999999999 0.28731863526392587
519.61 0.28731863526392587
519.914 0.2906486352639257
520.2175 0.30564863526392605
520.5225 0.3023186352639258
520.8265 0.26981363526392577
521.1305 0.28148363526392584
521.4335000000001 0.2898136352639258
521.7375 0.2714836352639258
522.0425 0.27648363526392594
522.346 0.2906486352639259
522.6495 0.30231363526392574
522.9535000000001 0.2889836352639259
523.2570000000001 0.25731863526392584
523.5605 0.27065363526392594
523.8644999999999 0.3139836352639258
524.168 0.29314863526392587
524.472 0.2898186352639258
524.7760000000001 0.2931536352639259
525.0799999999999 0.29314863526392587
525.384 0.29648363526392574
525.688 0.2989836352639259
525.992 0.31148363526392586
526.2955 0.303983635263926
526.5989999999999 0.2906486352639259
526.9025 0.2739836352639258
527.206 0.27648363526392594
527.5095 0.3089836352639259
527.813 0.3031486352639259
528.1165000000001 0.28814863526392576
528.4205 0.31564863526392584
528.7235000000001 0.3089836352639259
529.0275 0.3198136352639258
529.3305 0.31648363526392576
529.6345 0.299813635263926
529.9375 0.2906486352639259
530.2415000000001 0.26814863526392574
530.5445 0.30148363526392585
530.848 0.2998186352639258
531.1514999999999 0.3039836352639258
531.4549999999999 0.2831536352639257
531.7584999999999 0.2948136352639257
532.0615 0.2889836352639257
532.365 0.29565363526392585
532.6685 0.29148363526392584
532.972 0.30565363526392586
533.275 0.30731863526392567
533.5785 0.298153635263926
533.8820000000001 0.30148363526392585
534.185 0.28231863526392575
534.4884999999999 0.2898186352639258
534.792 0.3123186352639258
535.095 0.29231863526392576
535.3985 0.29731363526392585
535.7015 0.2856486352639258
536.005 0.2839836352639258
536.308 0.279813635263926
536.6115 0.27314863526392585
536.762 0.2806486352639259
537.0654999999999 0.29814863526392577
537.3685 0.27814863526392597
537.672 0.2948136352639259
537.975 0.28481363526392567
538.278 0.27814863526392597
538.5799999999999 0.29065363526392574
538.883 0.2698186352639258
539.1865 0.2714836352639258
539.49 0.2798186352639258
539.793 0.2848186352639259
540.096 0.2689836352639259
540.399 0.2614836352639258
540.702 0.27565363526392583
541.005 0.2506486352639259
541.3074999999999 0.28231363526392594
541.6105 0.258153635263926
541.9135 0.2764836352639257
542.2165 0.25231863526392573
542.5195 0.2689836352639259
542.8215 0.2573136352639258
543.1245 0.269818635263926
543.4275 0.2498186352639258
543.7305 0.25398363526392576
544.0335 0.24314863526392586
544.3365 0.22398363526392598
544.6395 0.24065363526392594
544.9414999999999 0.2398186352639258
545.2445 0.23148363526392582
545.5465 0.23814863526392596
545.8495 0.23648363526392593
546.1525 0.24648363526392594
546.4549999999999 0.2306486352639259
546.758 0.22898363526392587
547.0609999999999 0.22314863526392584
547.363 0.21898363526392586
547.6659999999999 0.23648363526392593
547.9680000000001 0.23398363526392577
548.271 0.21981363526392597
548.5730000000001 0.23065363526392593
548.876 0.2073136352639258
549.179 0.20898363526392585
549.482 0.21898363526392586
549.784 0.19731863526392582
550.0854999999999 0.205648635263926
550.388 0.21981863526392578
550.691 0.21564863526392578
550.9939999999999 0.2023186352639257
551.2964999999999 0.1864836352639259
551.5985000000001 0.18981363526392572
551.9010000000001 0.19731863526392582
552.2025000000001 0.19064863526392586
552.5055 0.19231863526392592
552.8085000000001 0.1864836352639259
553.1105 0.21065363526392591
553.4124999999999 0.16981863526392596
553.7145 0.18814863526392592
554.0165 0.18898363526392584
554.3195000000001 0.20314863526392582
554.622 0.19231863526392592
554.9235000000001 0.1864836352639259
555.2265 0.18481863526392586
555.528 0.19731863526392582
555.8305 0.1723186352639259
556.133 0.17648363526392588
556.435 0.16731363526392576
556.7375 0.17481863526392585
557.039 0.17815363526392594
557.3415 0.17398363526392593
557.644 0.18231863526392592
557.9459999999999 0.17981863526392597
558.247 0.15064863526392583
558.55 0.16314863526392578
558.852 0.15731863526392578
559.1534999999999 0.16564863526392595
559.304 0.15981363526392592
559.606 0.14814863526392588
559.908 0.147318635263926
560.2090000000001 0.15731863526392578
560.512 0.1531536352639258
560.8140000000001 0.1548136352639258
561.1155 0.16564863526392595
561.417 0.14481863526392583
561.719 0.1389836352639258
562.022 0.13148363526392595
562.323 0.15814863526392567
562.6245 0.14815363526392591
562.927 0.14981863526392594
563.229 0.16481863526392584
563.5305 0.1731486352639258
563.832 0.1389836352639258
564.1345 0.1523186352639259
564.4365 0.15231363526392586
564.7375 0.15731363526392575
565.0395 0.16398363526392593
565.3415 0.13648363526392585
565.6424999999999 0.15398363526392592
565.9435000000001 0.15564863526392572
566.2465 0.14565363526392575
566.5485 0.14981863526392572
566.8485000000001 0.13481863526392604
567.1510000000001 0.14231363526392585
567.453 0.12814863526392586
567.7545 0.14648363526392585
568.0554999999999 0.13565363526392574
568.3575000000001 0.143148635263926
568.6600000000001 0.1331536352639258
568.96 0.15565363526392598
569.262 0.15148363526392575
569.5640000000001 0.15398363526392592
569.864 0.15564863526392594
570.1665 0.15398363526392592
570.469 0.14231863526392588
570.769 0.12731863526392576
571.0709999999999 0.15314863526392578
571.373 0.14648363526392585
571.673 0.14564863526392594
571.975 0.14815363526392591
572.2760000000001 0.1431536352639258
572.577 0.14648363526392585
572.879 0.1381536352639259
573.1800000000001 0.14481863526392583
573.481 0.13731363526392573
573.7835 0.14148363526392574
574.0844999999999 0.14481863526392583
574.3855 0.14065363526392585
574.687 0.13648363526392585
574.988 0.1439836352639259
575.289 0.14981863526392572
575.59 0.137318635263926
575.8905 0.14648363526392585
576.1925 0.12731863526392576
576.4935 0.1489836352639258
576.7945 0.13898363526392601
577.0955 0.14231863526392566
577.3975 0.1439836352639259
577.6985 0.15564863526392594
577.999 0.13565363526392574
578.3 0.1339836352639259
578.601 0.15481863526392584
578.9024999999999 0.14065363526392585
579.2035 0.16565363526392599
579.5045 0.12648363526392606
579.806 0.15815363526392592
580.106 0.15648363526392586
580.408 0.16210318227659595
580.7075 0.16292942456926676
581.009 0.16211710043569008
581.311 0.1604409130616349
581.611 0.14878077390240765
581.761 0.1737807739024078
582.061 0.1523186352639259
582.3620000000001 0.1439836352639259
582.663 0.14648363526392585
582.9635000000001 0.1489836352639258
583.264 0.15481863526392584
583.566 0.134813635263926
583.8665000000001 0.13898363526392601
584.167 0.14398363526392569
584.4675 0.147318635263926
584.7685 0.15314863526392578
585.069 0.1639836352639257
585.3695 0.15981863526392573
585.6715 0.15648363526392586
585.9704999999999 0.15064863526392583
586.2725 0.143148635263926
586.572 0.15981863526392595
586.8734999999999 0.17314863526392602
587.1735 0.15148363526392597
587.4745 0.13564863526392593
587.7745 0.16148363526392598
588.0754999999999 0.15064863526392583
588.3755 0.14731363526392574
588.6765 0.16481863526392607
588.9765 0.1389836352639258
589.2775 0.17148363526392577
589.577 0.14648363526392585
589.8785 0.16564863526392595
590.1790000000001 0.1581486352639259
590.4795 0.163148635263926
590.78 0.17314863526392602
591.0805 0.17398363526392593
591.3810000000001 0.17648363526392588
591.681 0.15064863526392583
591.982 0.16481863526392584
592.2819999999999 0.16148363526392576
592.582 0.14814863526392588
592.8820000000001 0.15398363526392592
593.183 0.19398363526392595
593.4825000000001 0.17981363526392594
593.784 0.16898363526392604
594.083 0.16315363526392582
594.3845 0.1648136352639258
594.684 0.17398363526392593
594.984 0.16648363526392587
595.2845 0.157318635263926
595.5835 0.16148363526392598
595.885 0.16314863526392578
596.184 0.1623186352639259
596.4855 0.17731863526392602
596.7845 0.14648363526392585
597.086 0.16898363526392582
597.385 0.16148363526392598
597.6855 0.16481863526392584
597.9855 0.167318635263926
598.2855 0.1698136352639257
598.5854999999999 0.18898363526392584
598.885 0.15898363526392603
599.1855 0.18898363526392584
599.4855 0.18564863526392575
599.7855 0.1673186352639258
600.0854999999999 0.1698136352639257
600.3855 0.18898363526392584
600.6845000000001 0.18565363526392578
600.985 0.18398363526392572
601.2850000000001 0.1956536352639258
601.5840000000001 0.18148363526392577
601.8855 0.17963689318637102
602.1845000000001 0.1712465217309436
602.4855 0.1771601460108674
602.7845 0.19206253285464173
603.0835 0.15892697183613638
603.3845 0.17564863526392596
603.5329999999999 0.17398363526392593
603.832 0.16898363526392582
604.133 0.17564863526392596
604.4315 0.16898363526392582
604.7305 0.1773186352639258
605.0315 0.1489836352639258
605.3305 0.1864836352639259
605.6305 0.1873186352639258
605.9304999999999 0.19898363526392585
606.2294999999999 0.19064863526392586
606.5295 0.1864836352639259
606.8295 0.1731486352639258
607.1285 0.17898363526392583
607.4285 0.1781486352639259
607.7280000000001 0.17648363526392588
608.0275 0.16648363526392587
608.3265 0.16398363526392593
608.6265000000001 0.16898363526392604
608.9265 0.17648363526392588
609.2255 0.16981363526392593
609.525 0.1523186352639259
609.825 0.17481363526392604
610.1235 0.15231363526392586
610.4225 0.16981363526392593
610.723 0.17481363526392604
611.0219999999999 0.16314863526392578
611.3205 0.19314863526392603
611.6215 0.16564863526392595
611.9200000000001 0.171483635263926
612.219 0.15148363526392575
612.519 0.16564863526392595
612.818 0.15398363526392592
613.117 0.14731363526392574
613.4169999999999 0.1681536352639257
613.715 0.177313635263926
614.015 0.1731486352639258
614.315 0.17898363526392605
614.613 0.17648363526392588
614.912 0.1639836352639257
615.213 0.167318635263926
615.511 0.1589836352639258
615.81 0.15398363526392592
616.1095 0.16231363526392587
616.409 0.15898363526392603
616.7075 0.16981863526392574
617.0060000000001 0.1523186352639259
617.306 0.13564863526392593
617.6055 0.15148363526392597
617.904 0.16481363526392603
618.2035000000001 0.16148363526392576
618.502 0.16648363526392587
618.8005 0.16648363526392587
619.0999999999999 0.14481363526392602
619.3995 0.15981863526392595
619.698 0.16148363526392598
619.9965 0.14648363526392585
620.2945 0.15731363526392597
620.5955 0.14814863526392588
620.8934999999999 0.14981863526392594
621.1925 0.16564863526392595
621.4905 0.14814863526392588
621.7895 0.16564863526392573
622.0895 0.1339836352639259
622.3875 0.1356486352639257
622.6865 0.1381536352639259
622.9855 0.1339836352639259
623.2835 0.1481536352639257
623.5825 0.147318635263926
623.8815 0.15314863526392578
624.1804999999999 0.14981863526392572
624.4794999999999 0.15148363526392597
624.7775 0.14981863526392572
625.0754999999999 0.16398363526392593
625.2235000000001 0.13481863526392582
625.5245 0.13731363526392573
625.8225 0.1331536352639258
626.1205 0.11981863526392592
626.4190000000001 0.1448136352639258
626.7175 0.13981863526392593
627.0165 0.14065363526392585
627.3145 0.13148363526392595
627.614 0.12981863526392592
627.9124999999999 0.1356486352639257
628.2105 0.14564863526392594
628.5094999999999 0.14814863526392588
628.8075 0.14148363526392574
629.106 0.13814863526392565
629.404 0.14731363526392574
629.702 0.14231863526392566
630.0025 0.137318635263926
630.3005 0.1539836352639257
630.5985000000001 0.15064863526392583
630.8965000000001 0.12565363526392595
631.1949999999999 0.13981863526392593
631.4929999999999 0.14814863526392588
631.7919999999999 0.13148363526392573
632.09 0.14648363526392585
632.3879999999999 0.1431536352639258
632.6859999999999 0.15064863526392583
632.984 0.12898363526392578
633.283 0.11814863526392586
633.582 0.14815363526392591
633.88 0.12814863526392586
634.178 0.1623186352639259
634.476 0.123153635263926
634.774 0.15148363526392597
635.072 0.12231863526392586
635.37 0.1489836352639258
635.669 0.14648363526392585
635.9670000000001 0.1431536352639258
636.265 0.1206486352639258
636.563 0.143148635263926
636.861 0.1281536352639259
637.159 0.14148363526392574
637.4570000000001 0.14981863526392594
637.7545 0.15314863526392578
638.0519999999999 0.14981863526392594
638.351 0.1531536352639258
638.649 0.13314863526392598
638.947 0.1389836352639258
639.245 0.153148635263926
639.5425 0.15648363526392586
639.8415 0.13814863526392587
640.139 0.1398136352639259
640.437 0.13814863526392587
640.735 0.143148635263926
641.0325 0.1623186352639259
641.3315 0.14648363526392585
641.6289999999999 0.16064863526392584
641.927 0.16148363526392576
642.2245 0.13981863526392593
642.5225 0.14148363526392574
642.8199999999999 0.1581486352639259
643.1175000000001 0.15148363526392575
643.4145000000001 0.1523186352639259
643.712 0.15648363526392586
644.0095 0.15064863526392583
644.3075 0.14148363526392574
644.605 0.16648363526392587
644.9024999999999 0.1589836352639258
645.2005 0.1831486352639258
645.498 0.15481863526392584
645.7965 0.15231363526392586
646.0944999999999 0.16315363526392582
646.242 0.17481863526392585
646.5395 0.16148363526392598
646.8375000000001 0.17648363526392588
647.1345 0.14648363526392585
647.4325 0.16898363526392582
647.73 0.16315363526392582
648.0275 0.15898363526392603
648.325 0.16731363526392576
648.6225 0.1589836352639258
648.9200000000001 0.16398363526392593
649.2175 0.171483635263926
649.514 0.175653635263926
649.8115 0.1781486352639259
650.1089999999999 0.16565363526392576
650.4065 0.16898363526392582
650.704 0.17898363526392583
651.0015000000001 0.177313635263926
651.299 0.13981363526392568
651.596 0.14981863526392572
651.8934999999999 0.167318635263926
652.191 0.16564863526392595
652.4884999999999 0.15731363526392597
652.785 0.16648363526392587
653.082 0.15981363526392592
653.3795 0.1548136352639258
653.6769999999999 0.17065363526392588
653.9739999999999 0.13981863526392593
654.2715000000001 0.16981863526392596
654.569 0.16565363526392576
654.866 0.14898363526392602
655.1624999999999 0.14981863526392594
655.46 0.15064863526392583
655.7570000000001 0.14815363526392591
656.054 0.16565363526392599
656.3520000000001 0.15064863526392605
656.6479999999999 0.15398363526392592
656.945 0.14731863526392577
657.241 0.13648363526392585
657.539 0.1531536352639258
657.836 0.16231363526392587
658.133 0.16148363526392598
658.4300000000001 0.14648363526392585
658.7275 0.143148635263926
659.025 0.16648363526392587
659.321 0.1389836352639258
659.6179999999999 0.14398363526392569
659.915 0.13398363526392568
660.212 0.14231863526392588
660.5094999999999 0.11815363526392567
660.8054999999999 0.15064863526392583
661.102 0.12398363526392589
661.399 0.12231863526392586
661.696 0.14231863526392588
661.9929999999999 0.13481863526392582
662.29 0.14648363526392585
662.586 0.11815363526392589
662.883 0.1281536352639259
663.1800000000001 0.14314863526392577
663.477 0.13148363526392595
663.7729999999999 0.12565363526392595
664.069 0.11898363526392577
664.366 0.12898363526392578
664.6635 0.10898363526392577
664.9605 0.13231863526392587
665.2560000000001 0.13148363526392595
665.553 0.13648363526392585
665.8499999999999 0.1339836352639259
666.1469999999999 0.12814863526392586
666.443 0.12481863526392581
666.739 0.12814863526392586
667.0360000000001 0.11648363526392583
667.3330000000001 0.11315363526392577
667.4795 0.12231863526392586
667.7760000000001 0.11148363526392593
668.073 0.12148363526392594
668.37 0.12481863526392581
668.6659999999999 0.12814863526392586
668.962 0.12148363526392594
669.2584999999999 0.10814863526392585
669.5554999999999 0.12814863526392586
669.851 0.0998186352639259
670.148 0.11898363526392577
670.4449999999999 0.11231863526392585
670.741 0.11648363526392583
671.0364999999999 0.09815363526392587
671.3330000000001 0.12648363526392606
671.63 0.1056486352639259
671.9259999999999 0.11481363526392577
672.2225 0.11481863526392602
672.518 0.12398363526392589
672.815 0.1256486352639257
673.111 0.13064863526392603
673.4075 0.12481363526392578
673.704 0.12565363526392595
673.999 0.1339836352639259
674.2955 0.12481363526392578
674.5920000000001 0.09731863526392595
674.888 0.1098186352639259
675.1845000000001 0.1098186352639259
675.48 0.10731363526392593
675.7760000000001 0.10898363526392599
676.072 0.12148363526392594
676.369 0.09564863526392589
676.665 0.13565363526392596
676.96 0.09981363526392587
677.2570000000001 0.11731863526392575
677.552 0.1098186352639259
677.8489999999999 0.09064863526392578
678.1445 0.10898363526392599
678.44 0.11648363526392583
678.7370000000001 0.10481863526392579
679.033 0.09898363526392598
679.328 0.10648363526392604
679.624 0.1098186352639259
679.921 0.11148363526392593
680.216 0.12148363526392572
680.512 0.11148363526392571
680.807 0.12981863526392592
681.1034999999999 0.1298136352639259
681.4000000000001 0.0998186352639259
681.694 0.12814863526392586
681.991 0.11648363526392605
682.2860000000001 0.08981863526392589
682.5830000000001 0.11898363526392577
682.8779999999999 0.12231863526392586
683.1735000000001 0.12065363526392583
683.47 0.1106486352639258
683.764 0.10898363526392599
684.0609999999999 0.10065363526392582
684.357 0.084818635263926
684.652 0.11148363526392571
684.948 0.10898363526392599
685.2429999999999 0.09981363526392587
685.539 0.10648363526392604
685.835 0.11315363526392577
686.13 0.10398363526392587
686.426 0.09731863526392595
686.7215 0.11148363526392593
687.017 0.11148363526392593
687.3119999999999 0.10315363526392576
687.608 0.10898363526392599
687.9035 0.10398363526392587
688.05 0.09564863526392589
687.977 0.08463727052785157
688.275 0.09130727052785174
688.573 0.08296727052785173
688.869 0.09296727052785152
689.167 0.09630727052785164
689.466 0.09296727052785152
689.762 0.08296727052785173
690.06 0.11630727052785166
690.358 0.09963727052785169
690.654 0.09796727052785141
690.952 0.08796727052785162
691.25 0.08963727052785146
691.547 0.0863072705278514
691.845 0.08963727052785146
692.143 0.08296727052785173
692.439 0.10296727052785175
692.737 0.07963727052785168
693.033 0.09796727052785141
693.331 0.08296727052785173
693.629 0.09796727052785141
693.925 0.08463727052785157
694.223 0.07463727052785178
694.521 0.09963727052785169
694.817 0.11296727052785153
695.115 0.11630727052785166
695.413 0.11796727052785143
695.709 0.09130727052785174
696.007 0.11296727052785153
696.303 0.09130727052785174
696.601 0.12130727052785155
696.899 0.06963727052785144
697.195 0.10130727052785153
697.493 0.08296727052785173
697.789 0.10963727052785148
698.087 0.12630727052785146
698.385 0.07630727052785162
698.681 0.07630727052785162
698.978 0.08963727052785146
699.274 0.11130727052785176
699.572 0.10463727052785159
699.868 0.10630727052785142
700.166 0.08130727052785151
700.464 0.08796727052785162
700.759 0.09963727052785169
701.057 0.09796727052785141
701.353 0.09630727052785164
701.651 0.08963727052785146
701.947 0.0946372705278518
702.244 0.08463727052785157
702.542 0.0946372705278518
702.838 0.09630727052785164
703.136 0.07963727052785168
703.431 0.07796727052785139
703.729 0.08796727052785162
704.025 0.08130727052785151
704.323 0.0729672705278515
704.618 0.08130727052785151
704.916 0.11296727052785153
705.212 0.09130727052785174
705.509 0.06296727052785171
705.805 0.09796727052785141
706.103 0.10463727052785159
706.4 0.08296727052785173
706.696 0.08963727052785146
706.993 0.08963727052785146
707.289 0.09296727052785152
707.587 0.11296727052785153
707.882 0.0946372705278518
708.18 0.08463727052785157
708.475 0.10630727052785142
708.773 0.09630727052785164
709.068 0.10630727052785142
709.366 0.0729672705278515
709.661 0.10630727052785142
709.959 0.11130727052785176
710.255 0.09296727052785152
710.552 0.07130727052785173
710.847 0.09130727052785174
711.145 0.09630727052785164
711.44 0.08963727052785146
711.736 0.08963727052785146
712.033 0.08963727052785146
712.329 0.07130727052785173
712.626 0.11296727052785153
712.922 0.06963727052785144
713.219 0.08296727052785173
713.514 0.09296727052785152
713.812 0.08463727052785157
714.107 0.10463727052785159
714.405 0.10796727052785164
714.7 0.10130727052785153
714.997 0.10296727052785175
715.293 0.08130727052785151
715.588 0.10463727052785159
715.885 0.08296727052785173
716.181 0.0729672705278515
716.478 0.11296727052785153
716.773 0.08463727052785157
717.07 0.12296727052785177
717.366 0.08463727052785157
717.661 0.09296727052785152
717.958 0.07796727052785139
718.254 0.10963727052785148
718.551 0.0679672705278516
718.846 0.11463727052785182
719.141 0.08130727052785151
719.438 0.0729672705278515
719.734 0.0863072705278514
720.031 0.09130727052785174
720.326 0.09296727052785152
720.621 0.08963727052785146
720.918 0.09796727052785141
721.213 0.09130727052785174
721.511 0.10296727052785175
721.806 0.09130727052785174
722.101 0.09630727052785164
722.398 0.08130727052785151
722.693 0.06463727052785155
722.99 0.09796727052785141
723.285 0.07630727052785162
723.58 0.10296727052785175
723.877 0.09130727052785174
724.172 0.09630727052785164
724.467 0.08130727052785151
724.764 0.09130727052785174
725.06 0.09296727052785152
725.354 0.08296727052785173
725.651 0.0863072705278514
725.946 0.09963727052785169
726.243 0.0729672705278515
726.538 0.09963727052785169
726.833 0.09130727052785174
727.13 0.08796727052785162
727.425 0.08296727052785173
727.72 0.11296727052785153
728.017 0.0946372705278518
728.312 0.08963727052785146
728.607 0.09130727052785174
728.904 0.10296727052785175
729.199 0.06630727052785139
729.494 0.08796727052785162
729.789 0.09296727052785152
730.085 0.08296727052785173
730.38 0.09296727052785152
730.675 0.08796727052785162
730.972 0.09130727052785174
731.267 0.09130727052785174
731.562 0.08296727052785173
731.858 0.08796727052785162
732.153 0.08796727052785162
732.448 0.07130727052785173
732.743 0.10296727052785175
733.039 0.0946372705278518
733.334 0.0729672705278515
733.629 0.11296727052785153
733.926 0.06630727052785139
734.22 0.11296727052785153
734.515 0.08963727052785146
734.81 0.10630727052785142
735.107 0.08963727052785146
735.401 0.10296727052785175
735.696 0.10130727052785153
735.991 0.08796727052785162
736.287 0.11296727052785153
736.582 0.09130727052785174
736.876 0.08963727052785146
737.171 0.08296727052785173
737.468 0.08463727052785157
737.762 0.11630727052785166
738.057 0.0679672705278516
738.352 0.10296727052785175
738.648 0.09130727052785174
738.943 0.07630727052785162
739.237 0.10963727052785148
739.532 0.07463727052785178
739.828 0.09963727052785169
740.123 0.08796727052785162
740.417 0.08963727052785146
740.712 0.10296727052785175
741.006 0.07130727052785173
741.303 0.06963727052785144
741.597 0.09630727052785164
741.892 0.0946372705278518
742.186 0.10130727052785153
742.483 0.0946372705278518
742.777 0.09963727052785169
743.072 0.0863072705278514
743.366 0.0863072705278514
743.66 0.09630727052785164
743.955 0.09963727052785169
744.251 0.10130727052785153
744.546 0.08463727052785157
744.84 0.08963727052785146
745.134 0.08296727052785173
745.429 0.07963727052785168
745.725 0.09130727052785174
746.019 0.09130727052785174
746.314 0.10296727052785175
746.608 0.09130727052785174
746.902 0.09130727052785174
747.197 0.06630727052785139
747.493 0.08463727052785157
747.787 0.07963727052785168
748.082 0.09296727052785152
748.376 0.0946372705278518
748.67 0.09796727052785141
748.964 0.09963727052785169
749.259 0.11796727052785143
749.555 0.08296727052785173
749.849 0.07130727052785173
750.143 0.09130727052785174
750.437 0.0946372705278518
750.732 0.09796727052785141
751.026 0.11130727052785176
751.32 0.11463727052785182
751.614 0.09296727052785152
751.91 0.09130727052785174
752.204 0.10796727052785164
752.498 0.09963727052785169
752.793 0.10130727052785153
753.087 0.10796727052785164
753.381 0.09630727052785164
753.675 0.10463727052785159
753.969 0.11130727052785176
754.263 0.07463727052785178
754.559 0.09630727052785164
754.853 0.07796727052785139
755.147 0.09630727052785164
755.441 0.0863072705278514
755.735 0.08796727052785162
756.029 0.10963727052785148
756.323 0.06630727052785139
756.617 0.09296727052785152
756.911 0.0729672705278515
757.205 0.0863072705278514
757.499 0.10463727052785159
757.793 0.0946372705278518
758.087 0.11796727052785143
758.381 0.0863072705278514
758.677 0.08796727052785162
758.971 0.07963727052785168
759.265 0.0679672705278516
759.559 0.10130727052785153
759.853 0.08796727052785162
760.146 0.08130727052785151
760.44 0.08130727052785151
760.734 0.0946372705278518
761.028 0.10963727052785148
761.322 0.10630727052785142
761.616 0.11463727052785182
761.909 0.08463727052785157
762.203 0.10630727052785142
762.497 0.08130727052785151
762.791 0.07796727052785139
763.085 0.10630727052785142
763.378 0.08463727052785157
763.672 0.09296727052785152
763.966 0.09130727052785174
764.26 0.09963727052785169
764.553 0.07630727052785162
764.847 0.08463727052785157
765.141 0.09796727052785141
765.435 0.0729672705278515
765.728 0.09630727052785164
766.022 0.08296727052785173
766.316 0.10796727052785164
766.609 0.08463727052785157
766.903 0.09296727052785152
767.197 0.09630727052785164
767.49 0.09963727052785169
767.784 0.10796727052785164
768.078 0.09796727052785141
768.371 0.11963727052785171
768.665 0.08296727052785173
768.958 0.09796727052785141
769.252 0.06630727052785139
769.546 0.07963727052785168
769.839 0.08130727052785151
770.133 0.08796727052785162
770.426 0.09630727052785164
770.72 0.08130727052785151
771.013 0.07796727052785139
771.305 0.09296727052785152
771.598 0.05630727052785159
771.892 0.12296727052785177
772.185 0.09130727052785174
772.479 0.06463727052785155
772.772 0.08296727052785173
773.066 0.0863072705278514
773.359 0.08130727052785151
773.653 0.0946372705278518
773.946 0.11796727052785143
774.239 0.0863072705278514
774.533 0.08130727052785151
774.826 0.10630727052785142
775.12 0.09796727052785141
775.411 0.09630727052785164
775.704 0.09630727052785164
775.998 0.09296727052785152
776.291 0.08796727052785162
776.584 0.0729672705278515
776.878 0.09796727052785141
777.171 0.0863072705278514
777.464 0.09796727052785141
777.758 0.10130727052785153
778.049 0.12296727052785177
778.342 0.0863072705278514
778.636 0.10630727052785142
778.929 0.09130727052785174
779.222 0.11130727052785176
779.515 0.09963727052785169
779.809 0.11130727052785176
780.102 0.0946372705278518
780.393 0.09796727052785141
780.686 0.09796727052785141
780.979 0.09963727052785169
781.273 0.12130727052785155
781.566 0.09130727052785174
781.859 0.10796727052785164
782.152 0.09130727052785174
782.443 0.11130727052785176
782.737 0.09130727052785174
783.03 0.0863072705278514
783.323 0.11630727052785166
783.616 0.10296727052785175
783.909 0.09130727052785174
784.2 0.07796727052785139
784.493 0.08963727052785146
784.786 0.0679672705278516
785.079 0.0863072705278514
785.372 0.09796727052785141
785.664 0.08296727052785173
785.957 0.08463727052785157
786.25 0.07963727052785168
786.543 0.09630727052785164
786.836 0.0946372705278518
787.127 0.10463727052785159
787.42 0.10130727052785153
787.713 0.10296727052785175
788.006 0.08963727052785146
788.299 0.0729672705278515
788.59 0.11630727052785166
788.882 0.0863072705278514
789.175 0.10130727052785153
789.468 0.11130727052785176
789.761 0.11130727052785176
790.052 0.06463727052785155
790.345 0.10963727052785148
790.638 0.0946372705278518
790.931 0.08296727052785173
791.222 0.11630727052785166
791.515 0.09963727052785169
791.807 0.10963727052785148
792.1 0.08796727052785162
792.391 0.08796727052785162
792.684 0.0946372705278518
792.977 0.08463727052785157
793.27 0.09963727052785169
793.56 0.10463727052785159
793.853 0.10130727052785153
794.146 0.0679672705278516
794.439 0.10796727052785164
794.729 0.07130727052785173
795.022 0.08296727052785173
795.315 0.07963727052785168
795.606 0.07963727052785168
795.898 0.10463727052785159
796.191 0.10463727052785159
796.484 0.09630727052785164
796.775 0.08130727052785151
797.067 0.08130727052785151
797.36 0.08796727052785162
797.651 0.0863072705278514
797.943 0.07796727052785139
798.236 0.09130727052785174
798.528 0.11630727052785166
798.819 0.10463727052785159
799.112 0.09963727052785169
799.404 0.09963727052785169
799.695 0.07963727052785168
799.987 0.09296727052785152
800.28 0.07130727052785173
800.571 0.09796727052785141
800.863 0.09630727052785164
801.156 0.10630727052785142
801.446 0.10796727052785164
801.739 0.08463727052785157
802.031 0.11463727052785182
802.322 0.0946372705278518
802.614 0.08796727052785162
802.907 0.10630727052785142
803.197 0.07796727052785139
803.49 0.1246372705278516
803.782 0.08796727052785162
804.073 0.10296727052785175
804.365 0.0946372705278518
804.658 0.10963727052785148
804.948 0.08130727052785151
805.241 0.09130727052785174
805.531 0.09963727052785169
805.823 0.11130727052785176
806.116 0.0863072705278514
806.406 0.10296727052785175
806.698 0.10296727052785175
806.991 0.09296727052785152
807.281 0.0946372705278518
807.574 0.11130727052785176
807.864 0.0946372705278518
808.156 0.11963727052785171
808.449 0.09296727052785152
808.739 0.09963727052785169
809.031 0.09796727052785141
809.321 0.10130727052785153
809.614 0.0863072705278514
809.906 0.09296727052785152
810.196 0.1246372705278516
810.489 0.11963727052785171
810.779 0.11963727052785171
811.071 0.09963727052785169
811.363 0.1246372705278516
811.653 0.11630727052785166
811.946 0.10130727052785153
812.236 0.09963727052785169
812.528 0.09963727052785169
812.818 0.13296727052785157
813.11 0.12796727052785167
813.401 0.08130727052785151
813.693 0.09296727052785152
813.985 0.10463727052785159
814.275 0.11296727052785153
814.567 0.08296727052785173
814.857 0.0863072705278514
815.149 0.09296727052785152
815.439 0.0863072705278514
815.731 0.10963727052785148
816.022 0.10463727052785159
816.314 0.08130727052785151
816.604 0.12296727052785177
816.896 0.08463727052785157
817.188 0.09630727052785164
817.478 0.07963727052785168
817.77 0.09130727052785174
818.06 0.12296727052785177
818.352 0.10463727052785159
818.642 0.08963727052785146
818.934 0.09296727052785152
819.224 0.08963727052785146
819.516 0.10630727052785142
819.806 0.10630727052785142
820.098 0.10296727052785175
820.388 0.11463727052785182
820.679 0.09296727052785152
820.969 0.11130727052785176
821.261 0.09796727052785141
821.551 0.10630727052785142
821.843 0.10296727052785175
822.133 0.10463727052785159
822.423 0.09796727052785141
822.715 0.11463727052785182
823.005 0.07796727052785139
823.296 0.10963727052785148
823.586 0.08963727052785146
823.878 0.11796727052785143
824.168 0.09796727052785141
824.46 0.1296372705278515
824.749 0.11296727052785153
825.041 0.11463727052785182
825.331 0.10963727052785148
825.623 0.08963727052785146
825.912 0.11630727052785166
826.202 0.11296727052785153
826.494 0.0863072705278514
826.784 0.10963727052785148
827.075 0.09796727052785141
827.365 0.09130727052785174
827.657 0.0946372705278518
827.947 0.11463727052785182
828.236 0.10130727052785153
828.528 0.07130727052785173
828.818 0.12630727052785146
829.109 0.12296727052785177
829.399 0.10963727052785148
829.69 0.10796727052785164
829.98 0.10630727052785142
830.27 0.10296727052785175
830.561 0.12630727052785146
830.851 0.09630727052785164
831.143 0.06296727052785171
831.432 0.10463727052785159
831.722 0.10296727052785175
832.013 0.10130727052785153
832.303 0.09963727052785169
832.592 0.10130727052785153
832.884 0.09296727052785152
833.173 0.08963727052785146
833.465 0.10963727052785148
833.754 0.11463727052785182
834.044 0.08796727052785162
834.335 0.08796727052785162
834.625 0.08796727052785162
834.914 0.1246372705278516
835.206 0.08296727052785173
835.495 0.10630727052785142
835.785 0.12130727052785155
836.076 0.09130727052785174
836.366 0.09796727052785141
836.657 0.10630727052785142
836.946 0.10963727052785148
837.236 0.14130727052785158
837.527 0.11630727052785166
837.817 0.08463727052785157
838.106 0.10463727052785159
838.397 0.10296727052785175
838.687 0.10963727052785148
838.976 0.10796727052785164
839.265 0.10796727052785164
839.557 0.10296727052785175
839.846 0.11130727052785176
840.135 0.09130727052785174
840.426 0.11463727052785182
840.716 0.10963727052785148
841.005 0.08963727052785146
841.296 0.09130727052785174
841.586 0.09796727052785141
841.875 0.09963727052785169
842.166 0.07630727052785162
842.455 0.10463727052785159
842.744 0.11963727052785171
843.034 0.07463727052785178
843.325 0.0946372705278518
843.614 0.10963727052785148
843.903 0.10296727052785175
844.194 0.10296727052785175
844.484 0.14130727052785158
844.773 0.10630727052785142
845.062 0.0946372705278518
845.353 0.10630727052785142
845.642 0.11630727052785166
845.931 0.09963727052785169
846.22 0.0863072705278514
846.511 0.11463727052785182
846.801 0.11130727052785176
847.09 0.08796727052785162
847.379 0.10296727052785175
847.67 0.11630727052785166
847.959 0.10630727052785142
848.248 0.10796727052785164
848.537 0.10130727052785153
848.828 0.11796727052785143
849.117 0.1246372705278516
849.406 0.09296727052785152
849.695 0.11296727052785153
849.984 0.09963727052785169
850.275 0.09630727052785164
850.564 0.11296727052785153
850.853 0.11463727052785182
851.142 0.10296727052785175
851.431 0.0946372705278518
851.722 0.09963727052785169
852.011 0.10963727052785148
852.299 0.08130727052785151
852.588 0.09630727052785164
852.877 0.09130727052785174
853.168 0.11963727052785171
853.457 0.13296727052785157
853.746 0.10463727052785159
854.035 0.11130727052785176
854.324 0.0863072705278514
854.614 0.10963727052785148
854.903 0.10796727052785164
855.192 0.11630727052785166
855.481 0.0863072705278514
855.77 0.1346372705278514
856.058 0.10463727052785159
856.349 0.11296727052785153
856.638 0.10630727052785142
856.927 0.09630727052785164
857.216 0.11463727052785182
857.504 0.11630727052785166
857.793 0.10963727052785148
858.082 0.13296727052785157
858.372 0.11463727052785182
858.661 0.10963727052785148
858.95 0.09963727052785169
859.239 0.09296727052785152
859.527 0.12130727052785155
859.816 0.10296727052785175
860.105 0.10963727052785148
860.395 0.09963727052785169
860.684 0.09630727052785164
860.973 0.10963727052785148
861.261 0.10963727052785148
861.55 0.1296372705278515
861.838 0.1246372705278516
862.127 0.1313072705278518
862.416 0.11796727052785143
862.704 0.08963727052785146
862.993 0.12630727052785146
863.283 0.12296727052785177
863.572 0.08130727052785151
863.86 0.09630727052785164
864.149 0.14130727052785158
864.437 0.11630727052785166
864.726 0.10463727052785159
865.014 0.08296727052785173
865.303 0.12296727052785177
865.591 0.11963727052785171
865.88 0.11796727052785143
866.168 0.11463727052785182
866.457 0.1313072705278518
866.747 0.1346372705278514
867.036 0.10630727052785142
867.324 0.1246372705278516
867.613 0.12796727052785167
867.901 0.1346372705278514
868.189 0.12296727052785177
868.478 0.11963727052785171
868.766 0.10630727052785142
869.055 0.1313072705278518
869.343 0.11963727052785171
869.631 0.11463727052785182
869.92 0.09630727052785164
870.208 0.12296727052785177
870.496 0.11796727052785143
870.785 0.12296727052785177
871.073 0.12130727052785155
871.361 0.12296727052785177
871.65 0.11130727052785176
871.938 0.1346372705278514
872.226 0.1246372705278516
872.514 0.10963727052785148
872.803 0.11796727052785143
873.091 0.11630727052785166
873.379 0.1296372705278515
873.667 0.11463727052785182
873.956 0.11630727052785166
874.244 0.11130727052785176
874.532 0.10463727052785159
874.82 0.1313072705278518
875.108 0.11630727052785166
875.397 0.12130727052785155
875.685 0.11130727052785176
875.973 0.12630727052785146
876.261 0.11296727052785153
876.549 0.11463727052785182
876.837 0.11630727052785166
877.125 0.10963727052785148
877.414 0.10630727052785142
877.702 0.11130727052785176
877.99 0.11796727052785143
878.278 0.11796727052785143
878.566 0.14130727052785158
878.854 0.13296727052785157
879.142 0.11296727052785153
879.43 0.1363072705278517
879.718 0.14963727052785153
880.004 0.12796727052785167
880.292 0.11296727052785153
880.58 0.11796727052785143
880.868 0.11296727052785153
881.156 0.12630727052785146
881.444 0.0946372705278518
881.732 0.12630727052785146
882.02 0.08796727052785162
882.308 0.10963727052785148
882.596 0.11630727052785166
882.884 0.1313072705278518
883.172 0.12130727052785155
883.458 0.11796727052785143
883.746 0.10963727052785148
884.034 0.1246372705278516
884.322 0.1246372705278516
884.609 0.1313072705278518
884.897 0.09630727052785164
885.185 0.09963727052785169
885.473 0.10130727052785153
885.761 0.10796727052785164
886.049 0.09963727052785169
886.335 0.1346372705278514
886.622 0.12296727052785177
886.91 0.11463727052785182
887.198 0.1429672705278518
887.486 0.1429672705278518
887.774 0.11963727052785171
888.061 0.10463727052785159
888.347 0.09963727052785169
888.635 0.10296727052785175
888.923 0.12630727052785146
889.21 0.1246372705278516
889.498 0.11963727052785171
889.786 0.11630727052785166
890.073 0.11463727052785182
890.359 0.11463727052785182
890.647 0.11130727052785176
890.935 0.11963727052785171
891.222 0.09130727052785174
891.51 0.09296727052785152
891.798 0.14463727052785164
892.083 0.13296727052785157
892.371 0.11130727052785176
892.659 0.1296372705278515
892.946 0.11963727052785171
893.234 0.11296727052785153
893.519 0.11296727052785153
893.807 0.10463727052785159
894.094 0.12130727052785155
894.382 0.12130727052785155
894.67 0.12130727052785155
894.955 0.11963727052785171
895.243 0.12796727052785167
895.53 0.11130727052785176
895.818 0.10630727052785142
896.105 0.12796727052785167
896.391 0.12796727052785167
896.678 0.11296727052785153
896.966 0.1313072705278518
897.253 0.10463727052785159
897.539 0.12630727052785146
897.826 0.1363072705278517
898.114 0.10296727052785175
898.401 0.10463727052785159
898.689 0.1363072705278517
898.974 0.10963727052785148
899.261 0.1296372705278515
899.549 0.11796727052785143
899.836 0.13963727052785174
900.122 0.12130727052785155
900.409 0.12296727052785177
900.696 0.11463727052785182
900.982 0.11630727052785166
901.269 0.15296727052785158
901.556 0.11130727052785176
901.844 0.11796727052785143
902.129 0.15463727052785142
902.417 0.11296727052785153
902.704 0.11463727052785182
902.991 0.11963727052785171
903.276 0.10963727052785148
903.564 0.10963727052785148
903.851 0.11296727052785153
904.136 0.11296727052785153
904.423 0.11796727052785143
904.711 0.1346372705278514
904.998 0.12130727052785155
905.283 0.13796727052785146
905.57 0.10296727052785175
905.858 0.12630727052785146
906.143 0.12796727052785167
906.43 0.10463727052785159
906.717 0.09630727052785164
907.002 0.11463727052785182
907.29 0.1246372705278516
907.577 0.1246372705278516
907.862 0.11296727052785153
908.149 0.10963727052785148
908.436 0.13796727052785146
908.721 0.09963727052785169
909.008 0.10630727052785142
909.295 0.11796727052785143
909.581 0.1296372705278515
909.868 0.12130727052785155
910.155 0.11463727052785182
910.44 0.1246372705278516
910.727 0.12130727052785155
911.014 0.12130727052785155
911.299 0.11796727052785143
911.586 0.12630727052785146
911.871 0.12296727052785177
912.158 0.10463727052785159
912.445 0.13296727052785157
912.73 0.12130727052785155
913.017 0.1246372705278516
913.304 0.11963727052785171
913.589 0.11130727052785176
913.876 0.12296727052785177
914.161 0.14463727052785164
914.448 0.10463727052785159
914.735 0.1296372705278515
915.02 0.11130727052785176
915.307 0.11630727052785166
915.591 0.11296727052785153
915.878 0.1313072705278518
916.165 0.12630727052785146
916.45 0.1313072705278518
916.737 0.1346372705278514
917.022 0.11130727052785176
917.309 0.11963727052785171
917.595 0.11796727052785143
917.88 0.13296727052785157
918.167 0.13963727052785174
918.452 0.12130727052785155
918.739 0.1296372705278515
919.024 0.1246372705278516
919.31 0.12296727052785177
919.597 0.13296727052785157
919.882 0.11630727052785166
920.169 0.10796727052785164
920.453 0.13796727052785146
920.74 0.11630727052785166
921.025 0.13296727052785157
921.312 0.1296372705278515
921.596 0.10130727052785153
921.883 0.13296727052785157
922.168 0.14130727052785158
922.454 0.1313072705278518
922.741 0.12296727052785177
923.026 0.1363072705278517
923.312 0.11296727052785153
923.597 0.1429672705278518
923.884 0.12296727052785177
924.168 0.1429672705278518
924.455 0.11296727052785153
924.74 0.12796727052785167
925.026 0.12630727052785146
925.311 0.1313072705278518
925.597 0.12630727052785146
925.882 0.12296727052785177
926.169 0.13296727052785157
926.453 0.11463727052785182
926.74 0.15296727052785158
927.024 0.1479672705278517
927.311 0.1363072705278517
927.595 0.1246372705278516
927.882 0.11463727052785182
928.166 0.13296727052785157
928.453 0.0946372705278518
928.737 0.14630727052785147
929.022 0.1513072705278518
929.308 0.14130727052785158
929.593 0.15463727052785142
929.879 0.13796727052785146
930.164 0.13296727052785157
930.45 0.09963727052785169
930.734 0.12630727052785146
931.021 0.1363072705278517
931.305 0.1363072705278517
931.592 0.12130727052785155
931.876 0.14630727052785147
932.16 0.1296372705278515
932.447 0.12130727052785155
932.731 0.15463727052785142
933.018 0.10630727052785142
933.302 0.1429672705278518
933.588 0.15463727052785142
933.873 0.1363072705278517
934.157 0.14130727052785158
934.443 0.10130727052785153
934.727 0.1296372705278515
935.014 0.1313072705278518
935.298 0.11963727052785171
935.582 0.13296727052785157
935.869 0.14963727052785153
936.153 0.1346372705278514
936.439 0.1479672705278517
936.723 0.1313072705278518
937.008 0.1363072705278517
937.294 0.12296727052785177
937.578 0.14130727052785158
937.864 0.12630727052785146
938.148 0.1313072705278518
938.433 0.1513072705278518
938.719 0.14130727052785158
939.003 0.15963727052785176
939.287 0.1429672705278518
939.573 0.15296727052785158
939.857 0.1429672705278518
940.143 0.13963727052785174
940.428 0.10630727052785142
940.712 0.15296727052785158
940.998 0.1346372705278514
941.282 0.14130727052785158
941.566 0.14963727052785153
941.852 0.14463727052785164
942.136 0.1429672705278518
942.42 0.1296372705278515
942.706 0.10130727052785153
942.99 0.1313072705278518
943.274 0.1346372705278514
943.56 0.1679672705278517
943.844 0.13296727052785157
944.128 0.16963727052785155
944.414 0.12296727052785177
944.698 0.13963727052785174
944.982 0.14463727052785164
945.268 0.1246372705278516
945.552 0.15463727052785142
945.836 0.1479672705278517
946.12 0.1563072705278517
946.406 0.13296727052785157
946.69 0.16963727052785155
946.974 0.15463727052785142
947.26 0.15963727052785176
947.544 0.17630727052785172
947.828 0.14463727052785164
948.114 0.12630727052785146
948.397 0.12796727052785167
948.681 0.17130727052785183
948.965 0.1479672705278517
949.251 0.1563072705278517
949.535 0.14963727052785153
949.819 0.12130727052785155
950.103 0.1663072705278515
950.388 0.13963727052785174
950.672 0.14130727052785158
950.956 0.14963727052785153
951.24 0.1563072705278517
951.525 0.14463727052785164
951.809 0.15296727052785158
952.093 0.13296727052785157
952.377 0.15796727052785148
952.662 0.14130727052785158
952.946 0.14963727052785153
953.23 0.16296727052785182
953.514 0.1613072705278516
953.799 0.17463727052785144
954.083 0.13796727052785146
954.367 0.15296727052785158
954.65 0.1363072705278517
954.934 0.16296727052785182
955.22 0.15463727052785142
955.503 0.1313072705278518
955.787 0.15463727052785142
956.071 0.1296372705278515
956.356 0.16296727052785182
956.64 0.17630727052785172
956.924 0.1679672705278517
957.207 0.1429672705278518
957.491 0.14130727052785158
957.774 0.19463727052785146
958.06 0.1513072705278518
958.343 0.15963727052785176
958.627 0.1679672705278517
958.911 0.1513072705278518
959.194 0.14963727052785153
959.48 0.15296727052785158
959.763 0.14463727052785164
960.047 0.1563072705278517
960.33 0.1563072705278517
960.614 0.1613072705278516
960.897 0.13963727052785174
961.182 0.1613072705278516
961.466 0.13296727052785157
961.749 0.1513072705278518
962.033 0.1563072705278517
962.316 0.14630727052785147
962.6 0.15796727052785148
962.883 0.1663072705278515
963.169 0.14963727052785153
963.452 0.15963727052785176
963.735 0.1613072705278516
964.019 0.13796727052785146
964.302 0.1863072705278515
964.586 0.14630727052785147
964.869 0.16296727052785182
965.152 0.11130727052785176
965.438 0.16963727052785155
965.721 0.14963727052785153
966.004 0.1729672705278516
966.288 0.1479672705278517
966.571 0.1513072705278518
966.854 0.14963727052785153
967.137 0.1729672705278516
967.421 0.15296727052785158
967.704 0.1479672705278517
967.987 0.1479672705278517
968.272 0.14963727052785153
968.556 0.16463727052785165
968.839 0.1663072705278515
969.122 0.17130727052785183
969.405 0.1479672705278517
969.689 0.12630727052785146
969.972 0.1429672705278518
970.255 0.18463727052785167
970.538 0.16296727052785182
970.821 0.14630727052785147
971.105 0.16463727052785165
971.388 0.14463727052785164
971.671 0.16463727052785165
971.954 0.16463727052785165
972.237 0.16296727052785182
972.52 0.14130727052785158
972.805 0.17130727052785183
973.088 0.1663072705278515
973.371 0.1563072705278517
973.655 0.1429672705278518
973.938 0.1663072705278515
974.221 0.1479672705278517
974.504 0.12130727052785155
974.787 0.1729672705278516
975.07 0.18463727052785167
975.353 0.14130727052785158
975.636 0.13296727052785157
975.919 0.14463727052785164
976.202 0.14963727052785153
976.485 0.15463727052785142
976.768 0.15963727052785176
977.051 0.1563072705278517
977.334 0.17130727052785183
977.617 0.16463727052785165
977.9 0.1729672705278516
978.183 0.17130727052785183
978.466 0.1663072705278515
978.749 0.14130727052785158
979.031 0.1513072705278518
979.314 0.13296727052785157
979.597 0.14963727052785153
979.88 0.14630727052785147
980.163 0.1513072705278518
980.446 0.1563072705278517
980.729 0.16296727052785182
981.01 0.1729672705278516
981.293 0.1663072705278515
981.575 0.14963727052785153
981.858 0.1779672705278515
982.141 0.1296372705278515
982.424 0.15796727052785148
982.707 0.17130727052785183
982.989 0.1429672705278518
983.272 0.16963727052785155
983.555 0.16963727052785155
983.838 0.14963727052785153
984.12 0.14963727052785153
984.403 0.14130727052785158
984.686 0.15963727052785176
984.969 0.16463727052785165
985.251 0.16963727052785155
985.532 0.1479672705278517
985.815 0.18130727052785162
986.098 0.16296727052785182
986.38 0.1663072705278515
986.663 0.16296727052785182
986.946 0.15963727052785176
987.228 0.12630727052785146
987.511 0.16296727052785182
987.794 0.17130727052785183
988.076 0.1429672705278518
988.357 0.14463727052785164
988.639 0.18130727052785162
988.922 0.16963727052785155
989.205 0.1613072705278516
989.487 0.14630727052785147
989.77 0.1663072705278515
990.052 0.1779672705278515
990.335 0.1679672705278517
990.616 0.14630727052785147
990.898 0.15296727052785158
991.181 0.17463727052785144
991.463 0.14963727052785153
991.746 0.1729672705278516
992.028 0.1613072705278516
992.311 0.15463727052785142
992.591 0.18463727052785167
992.874 0.15296727052785158
993.156 0.15963727052785176
993.439 0.15796727052785148
993.721 0.16463727052785165
994.003 0.14963727052785153
994.284 0.14963727052785153
994.566 0.1779672705278515
994.849 0.16463727052785165
995.131 0.13296727052785157
995.414 0.1563072705278517
995.696 0.1346372705278514
995.976 0.15796727052785148
996.259 0.15963727052785176
996.541 0.17630727052785172
996.823 0.1429672705278518
997.106 0.18296727052785183
997.386 0.16463727052785165
997.669 0.14130727052785158
997.951 0.17963727052785178
998.233 0.1779672705278515
998.516 0.15296727052785158
998.796 0.16463727052785165
999.078 0.14463727052785164
999.36 0.1513072705278518
999.643 0.1429672705278518
999.923 0.15296727052785158
1000.21 0.13963727052785174
1000.49 0.15796727052785148
1000.77 0.1729672705278516
1001.05 0.17130727052785183
1001.33 0.16463727052785165
1001.61 0.16963727052785155
1001.9 0.17130727052785183
1002.18 0.16296727052785182
1002.46 0.15796727052785148
1002.74 0.15463727052785142
1003.02 0.16463727052785165
1003.3 0.15296727052785158
1003.59 0.14963727052785153
1003.87 0.18796727052785173
1004.15 0.1729672705278516
1004.43 0.13796727052785146
1004.71 0.1563072705278517
1004.99 0.16963727052785155
1005.28 0.1563072705278517
1005.56 0.1729672705278516
1005.84 0.1479672705278517
1006.12 0.15963727052785176
1006.4 0.17130727052785183
1006.68 0.1663072705278515
1006.96 0.13963727052785174
1007.24 0.14630727052785147
1007.53 0.16296727052785182
1007.81 0.14963727052785153
1008.09 0.1679672705278517
1008.37 0.16463727052785165
1008.65 0.17963727052785178
1008.93 0.13796727052785146
1009.21 0.1563072705278517
1009.5 0.1563072705278517
1009.78 0.18130727052785162
1010.06 0.15463727052785142
1010.34 0.16463727052785165
1010.62 0.1363072705278517
1010.9 0.16463727052785165
1011.18 0.15796727052785148
1011.47 0.1863072705278515
1011.75 0.16463727052785165
1012.03 0.17630727052785172
1012.31 0.18963727052785156
1012.59 0.1729672705278516
1012.87 0.15463727052785142
1013.15 0.14130727052785158
1013.43 0.18796727052785173
1013.72 0.1863072705278515
1014.0 0.15796727052785148
1014.28 0.17463727052785144
1014.56 0.18463727052785167
1014.84 0.17463727052785144
1015.12 0.18130727052785162
1015.4 0.13963727052785174
1015.68 0.19296727052785162
1015.96 0.17463727052785144
1016.24 0.1729672705278516
1016.53 0.1429672705278518
1016.81 0.16463727052785165
1017.09 0.1663072705278515
1017.37 0.18963727052785156
1017.65 0.1779672705278515
1017.93 0.17963727052785178
1018.21 0.17130727052785183
1018.49 0.18463727052785167
1018.77 0.1679672705278517
1019.05 0.14630727052785147
1019.33 0.17130727052785183
1019.61 0.14963727052785153
1019.9 0.17130727052785183
1020.18 0.1613072705278516
1020.46 0.1563072705278517
1020.74 0.19463727052785146
1021.02 0.18130727052785162
1021.3 0.18963727052785156
1021.58 0.18130727052785162
1021.86 0.17130727052785183
1022.14 0.16463727052785165
1022.42 0.16963727052785155
1022.7 0.18130727052785162
1022.98 0.18796727052785173
1023.26 0.16463727052785165
1023.54 0.18296727052785183
1023.83 0.18296727052785183
1024.11 0.1979672705278515
1024.39 0.14963727052785153
1024.67 0.18463727052785167
1024.95 0.14130727052785158
1025.23 0.1563072705278517
1025.51 0.1679672705278517
1025.79 0.17130727052785183
1026.07 0.15463727052785142
1026.35 0.17463727052785144
1026.63 0.19463727052785146
1026.91 0.1779672705278515
1027.19 0.17630727052785172
1027.47 0.19296727052785162
1027.75 0.17130727052785183
1028.03 0.17463727052785144
1028.31 0.17463727052785144
1028.59 0.16963727052785155
1028.87 0.17963727052785178
1029.15 0.16963727052785155
1029.43 0.15963727052785176
1029.71 0.17963727052785178
1030.0 0.19630727052785174
1030.27 0.1663072705278515
1030.56 0.1863072705278515
1030.84 0.19296727052785162
1031.12 0.15463727052785142
1031.4 0.18463727052785167
1031.68 0.1913072705278514
1031.96 0.18963727052785156
1032.24 0.17130727052785183
1032.52 0.15963727052785176
1032.8 0.17630727052785172
1033.08 0.1779672705278515
1033.36 0.17463727052785144
1033.64 0.1779672705278515
1033.92 0.18296727052785183
1034.2 0.19630727052785174
1034.48 0.15963727052785176
1034.76 0.16963727052785155
1035.04 0.15963727052785176
1035.32 0.17630727052785172
1035.6 0.20630727052785153
1035.88 0.1863072705278515
1036.16 0.17963727052785178
1036.44 0.18463727052785167
1036.72 0.1913072705278514
1037.0 0.17463727052785144
1037.28 0.16296727052785182
1037.56 0.16296727052785182
1037.84 0.17630727052785172
1038.12 0.19296727052785162
1038.4 0.1779672705278515
1038.68 0.18463727052785167
1038.96 0.18296727052785183
1039.24 0.18130727052785162
1039.52 0.1663072705278515
1039.79 0.1779672705278515
1040.08 0.13963727052785174
1040.35 0.18296727052785183
1040.64 0.17130727052785183
1040.91 0.1563072705278517
1041.19 0.18963727052785156
1041.47 0.17130727052785183
1041.75 0.2029672705278514
1042.03 0.19463727052785146
1042.31 0.1996372705278518
1042.59 0.1729672705278516
1042.87 0.1913072705278514
1043.15 0.18463727052785167
1043.43 0.16963727052785155
1043.71 0.17130727052785183
1043.99 0.17463727052785144
1044.27 0.18130727052785162
1044.55 0.1779672705278515
1044.83 0.18463727052785167
1045.11 0.18796727052785173
1045.39 0.1863072705278515
1045.67 0.17130727052785183
1045.95 0.20130727052785163
1046.23 0.1563072705278517
1046.51 0.18463727052785167
1046.79 0.1663072705278515
1047.06 0.16963727052785155
1047.34 0.18796727052785173
1047.62 0.19463727052785146
1047.9 0.17963727052785178
1048.18 0.18963727052785156
1048.46 0.18963727052785156
1048.74 0.20130727052785163
1049.02 0.16463727052785165
1049.3 0.1863072705278515
1049.58 0.18463727052785167
1049.86 0.15963727052785176
1050.14 0.19630727052785174
1050.42 0.18796727052785173
1050.7 0.18296727052785183
1050.97 0.17963727052785178
1051.25 0.1563072705278517
1051.53 0.1979672705278515
1051.81 0.17463727052785144
1052.09 0.1979672705278515
1052.37 0.16963727052785155
1052.65 0.1679672705278517
1052.93 0.21796727052785153
1053.21 0.18963727052785156
1053.49 0.1779672705278515
1053.77 0.19630727052785174
1054.05 0.1996372705278518
1054.32 0.1779672705278515
1054.6 0.16963727052785155
1054.88 0.18963727052785156
1055.16 0.1663072705278515
1055.44 0.17130727052785183
1055.72 0.19296727052785162
1056.0 0.17463727052785144
1056.28 0.19463727052785146
1056.56 0.1863072705278515
1056.84 0.22296727052785142
1057.11 0.1729672705278516
1057.39 0.19296727052785162
1057.67 0.18796727052785173
1057.95 0.20796727052785174
1058.23 0.18963727052785156
1058.51 0.1729672705278516
1058.79 0.1729672705278516
1059.07 0.18963727052785156
1059.34 0.1563072705278517
1059.62 0.17130727052785183
1059.9 0.18963727052785156
1060.18 0.1663072705278515
1060.46 0.18130727052785162
1060.74 0.19296727052785162
1061.02 0.17963727052785178
1061.3 0.18130727052785162
1061.57 0.1513072705278518
1061.85 0.15296727052785158
1062.13 0.2029672705278514
1062.41 0.1613072705278516
1062.69 0.18463727052785167
1062.97 0.18296727052785183
1063.25 0.2029672705278514
1063.53 0.1979672705278515
1063.8 0.19296727052785162
1064.08 0.19630727052785174
1064.36 0.20130727052785163
1064.64 0.1729672705278516
1064.92 0.18796727052785173
1065.2 0.19463727052785146
1065.47 0.2029672705278514
1065.75 0.1913072705278514
1066.03 0.20130727052785163
1066.31 0.1479672705278517
1066.59 0.18463727052785167
1066.87 0.18796727052785173
1067.14 0.18296727052785183
1067.42 0.18963727052785156
1067.7 0.2046372705278517
1067.98 0.18463727052785167
1068.26 0.2046372705278517
1068.54 0.20796727052785174
1068.82 0.1779672705278515
1069.09 0.20796727052785174
1069.37 0.19630727052785174
1069.65 0.1996372705278518
1069.93 0.19296727052785162
1070.21 0.20630727052785153
1070.48 0.17130727052785183
1070.76 0.19463727052785146
1071.04 0.18130727052785162
1071.32 0.20130727052785163
1071.6 0.16963727052785155
1071.87 0.1863072705278515
1072.15 0.16296727052785182
1072.43 0.1913072705278514
1072.71 0.1863072705278515
1072.99 0.1913072705278514
1073.26 0.20630727052785153
1073.54 0.16463727052785165
1073.82 0.1679672705278517
1074.1 0.18796727052785173
1074.38 0.18296727052785183
1074.65 0.19463727052785146
1074.93 0.1729672705278516
1075.21 0.1979672705278515
1075.49 0.18463727052785167
1075.77 0.17463727052785144
1076.05 0.22296727052785142
1076.32 0.17130727052785183
1076.6 0.20963727052785158
1076.88 0.1913072705278514
1077.16 0.19296727052785162
1077.43 0.1996372705278518
1077.71 0.21296727052785164
1077.99 0.2196372705278518
1078.27 0.1779672705278515
1078.55 0.18796727052785173
1078.82 0.17463727052785144
1079.1 0.17630727052785172
1079.38 0.1979672705278515
1079.66 0.20963727052785158
1079.93 0.19630727052785174
1080.21 0.18296727052785183
1080.49 0.19296727052785162
1080.77 0.2029672705278514
1081.05 0.16963727052785155
1081.32 0.17463727052785144
1081.6 0.21130727052785142
1081.88 0.20963727052785158
1082.16 0.18130727052785162
1082.43 0.22296727052785142
1082.71 0.18963727052785156
1082.99 0.21296727052785164
1083.27 0.1979672705278515
1083.54 0.21130727052785142
1083.82 0.1779672705278515
1084.1 0.2046372705278517
1084.38 0.19463727052785146
1084.65 0.18296727052785183
1084.93 0.1996372705278518
1085.21 0.16463727052785165
1085.49 0.17463727052785144
1085.76 0.18130727052785162
1086.04 0.18463727052785167
1086.32 0.1863072705278515
1086.6 0.2046372705278517
1086.87 0.2046372705278517
1087.15 0.18130727052785162
1087.43 0.1679672705278517
1087.71 0.16963727052785155
1087.98 0.21796727052785153
1088.26 0.17130727052785183
1088.54 0.21463727052785148
1088.81 0.19463727052785146
1089.09 0.2196372705278518
1089.37 0.1913072705278514
1089.65 0.2029672705278514
1089.92 0.2046372705278517
1090.2 0.18296727052785183
1090.48 0.17630727052785172
1090.75 0.21796727052785153
1091.03 0.2296372705278516
