# Created: 2019-11-28 15:00:29.672528
# rshift intensity
76.1738 0.33667000000000025
76.4989 0.2999999999999998
76.824 0.2966700000000002
77.1491 0.3333400000000002
77.4721 0.33667000000000025
77.7972 0.32667
78.1223 0.31000000000000005
78.4474 0.31000000000000005
78.7724 0.3566699999999998
79.0975 0.2966700000000002
79.4204 0.31999999999999984
79.7454 0.31667000000000023
80.0704 0.28000000000000025
80.3954 0.29334000000000016
80.7204 0.32667
81.0454 0.3333400000000002
81.3682 0.34334
81.6931 0.33000000000000007
82.0181 0.28000000000000025
82.343 0.2966700000000002
82.6679 0.28667
82.9907 0.2999999999999998
83.3156 0.2999999999999998
83.6405 0.33999999999999986
83.9654 0.3333400000000002
84.2903 0.28000000000000025
84.613 0.2833399999999999
84.9378 0.28000000000000025
85.2626 0.2999999999999998
85.5875 0.30333999999999994
85.9101 0.2633399999999999
86.2349 0.33999999999999986
86.5597 0.31000000000000005
86.8845 0.31999999999999984
87.2093 0.2966700000000002
87.5319 0.32667
87.8566 0.29334000000000016
88.1814 0.26000000000000023
88.5061 0.31000000000000005
88.8286 0.32333999999999996
89.1533 0.2999999999999998
89.478 0.32333999999999996
89.8027 0.28000000000000025
90.1252 0.33667000000000025
90.4499 0.32667
90.7745 0.31000000000000005
91.0992 0.30667
91.4216 0.33000000000000007
91.7462 0.35333999999999977
92.0708 0.36334000000000044
92.3954 0.32333999999999996
92.7179 0.2833399999999999
93.0424 0.28000000000000025
93.367 0.2966700000000002
93.6915 0.30667
94.0139 0.3133400000000002
94.3384 0.30667
94.6629 0.29000000000000004
94.9853 0.27334000000000014
95.3098 0.29000000000000004
95.6342 0.30667
95.9587 0.28667
96.281 0.3333400000000002
96.6055 0.31999999999999984
96.9299 0.2966700000000002
97.2522 0.27334000000000014
97.5766 0.29334000000000016
97.901 0.28667
98.2232 0.2833399999999999
98.5476 0.2766700000000002
98.8719 0.29334000000000016
99.1942 0.2999999999999998
99.5185 0.28667
99.8428 0.26666999999999996
100.165 0.29334000000000016
100.489 0.28667
100.814 0.30667
101.136 0.28000000000000025
101.46 0.29334000000000016
101.784 0.2999999999999998
102.106 0.32667
102.431 0.3133400000000002
102.755 0.31667000000000023
103.077 0.30333999999999994
103.401 0.30667
103.725 0.31999999999999984
104.047 0.30333999999999994
104.372 0.30667
104.696 0.3133400000000002
105.018 0.31000000000000005
105.342 0.30667
105.666 0.31000000000000005
105.988 0.35333999999999977
106.312 0.28667
106.634 0.30333999999999994
106.958 0.27334000000000014
107.282 0.33000000000000007
107.604 0.2999999999999998
107.928 0.30333999999999994
108.252 0.2833399999999999
108.574 0.28667
108.898 0.29334000000000016
109.22 0.2999999999999998
109.544 0.33000000000000007
109.868 0.3333400000000002
110.19 0.29000000000000004
110.514 0.33000000000000007
110.836 0.31999999999999984
111.159 0.27334000000000014
111.483 0.29334000000000016
111.805 0.31000000000000005
112.129 0.29000000000000004
112.451 0.30333999999999994
112.775 0.2999999999999998
113.096 0.30333999999999994
113.42 0.28667
113.744 0.28667
114.066 0.31000000000000005
114.39 0.3133400000000002
114.711 0.31000000000000005
115.035 0.2833399999999999
115.357 0.31999999999999984
115.681 0.2833399999999999
116.004 0.2766700000000002
116.326 0.3133400000000002
116.65 0.2999999999999998
116.971 0.30333999999999994
117.295 0.2766700000000002
117.617 0.30333999999999994
117.94 0.2966700000000002
118.262 0.29334000000000016
118.586 0.2833399999999999
118.907 0.28000000000000025
119.231 0.2833399999999999
119.554 0.29000000000000004
119.876 0.28667
120.199 0.2999999999999998
120.521 0.26666999999999996
120.845 0.2766700000000002
121.166 0.2966700000000002
121.49 0.29000000000000004
121.811 0.28667
122.135 0.30667
122.456 0.2833399999999999
122.78 0.30333999999999994
123.101 0.2766700000000002
123.424 0.2833399999999999
123.746 0.29000000000000004
124.069 0.28000000000000025
124.391 0.3333400000000002
124.714 0.29334000000000016
125.035 0.31000000000000005
125.359 0.2966700000000002
125.68 0.29334000000000016
126.004 0.27
126.325 0.2966700000000002
126.648 0.30667
126.97 0.27
127.291 0.28000000000000025
127.614 0.2766700000000002
127.935 0.30333999999999994
128.259 0.2566700000000002
128.58 0.2999999999999998
128.903 0.2999999999999998
129.224 0.29000000000000004
129.548 0.30333999999999994
129.869 0.2833399999999999
130.192 0.2966700000000002
130.513 0.28667
130.834 0.27334000000000014
131.158 0.28667
131.479 0.2966700000000002
131.802 0.2999999999999998
132.123 0.28000000000000025
132.446 0.28000000000000025
132.767 0.26000000000000023
133.09 0.29000000000000004
133.411 0.2633399999999999
133.733 0.26666999999999996
134.056 0.32667
134.377 0.2766700000000002
134.7 0.28667
135.021 0.31999999999999984
135.342 0.28667
135.665 0.31667000000000023
135.986 0.2833399999999999
136.309 0.28667
136.63 0.31999999999999984
136.951 0.34334
137.274 0.27
137.595 0.28000000000000025
137.918 0.3133400000000002
138.238 0.27334000000000014
138.559 0.29000000000000004
138.882 0.2966700000000002
139.203 0.2766700000000002
139.526 0.2833399999999999
139.847 0.2766700000000002
140.168 0.2966700000000002
140.491 0.28667
140.811 0.2766700000000002
141.132 0.2766700000000002
141.455 0.33667000000000025
141.776 0.30667
142.097 0.27
142.419 0.30333999999999994
142.74 0.2400000000000002
143.061 0.31000000000000005
143.384 0.29334000000000016
143.704 0.26666999999999996
144.027 0.27334000000000014
144.348 0.32333999999999996
144.668 0.2833399999999999
144.991 0.28667
145.312 0.32667
145.632 0.26000000000000023
145.955 0.29334000000000016
146.276 0.2633399999999999
146.596 0.2566700000000002
146.917 0.29334000000000016
147.24 0.27
147.56 0.28667
147.881 0.27
148.203 0.31667000000000023
148.524 0.2633399999999999
148.844 0.25
149.167 0.28000000000000025
149.487 0.28667
149.808 0.27334000000000014
150.131 0.2999999999999998
150.451 0.26666999999999996
150.771 0.30667
151.092 0.2966700000000002
151.414 0.25
151.735 0.29334000000000016
152.055 0.2633399999999999
152.378 0.26000000000000023
152.698 0.2833399999999999
153.018 0.2833399999999999
153.339 0.2766700000000002
153.661 0.2999999999999998
153.982 0.2999999999999998
154.302 0.29334000000000016
154.622 0.2633399999999999
154.945 0.2400000000000002
155.265 0.27334000000000014
155.585 0.2833399999999999
155.905 0.2633399999999999
156.228 0.29000000000000004
156.548 0.27334000000000014
156.868 0.2766700000000002
157.188 0.28667
157.511 0.28667
157.831 0.2566700000000002
158.151 0.27334000000000014
158.471 0.27334000000000014
158.794 0.28667
159.114 0.26000000000000023
159.434 0.2833399999999999
159.754 0.29000000000000004
160.074 0.30667
160.396 0.26000000000000023
160.717 0.2766700000000002
161.037 0.29000000000000004
161.357 0.25
161.679 0.27334000000000014
161.999 0.27334000000000014
162.319 0.30667
162.639 0.27
162.959 0.2966700000000002
163.281 0.25
163.601 0.2999999999999998
163.921 0.25
164.241 0.2433399999999999
164.561 0.27
164.881 0.30333999999999994
165.203 0.29000000000000004
165.523 0.2533400000000001
165.843 0.27
166.163 0.2833399999999999
166.483 0.29334000000000016
166.803 0.28000000000000025
167.125 0.26666999999999996
167.445 0.2400000000000002
167.764 0.2766700000000002
168.084 0.25
168.404 0.26666999999999996
168.724 0.2633399999999999
169.046 0.2766700000000002
169.366 0.30333999999999994
169.685 0.29000000000000004
170.005 0.24666999999999994
170.325 0.27
170.645 0.28667
170.964 0.30333999999999994
171.286 0.2533400000000001
171.606 0.30333999999999994
171.926 0.31667000000000023
172.245 0.2433399999999999
172.565 0.30667
172.885 0.2833399999999999
173.204 0.2633399999999999
173.524 0.2766700000000002
173.846 0.2566700000000002
174.166 0.27334000000000014
174.485 0.2833399999999999
174.805 0.28000000000000025
175.124 0.26666999999999996
175.444 0.2999999999999998
175.764 0.29334000000000016
176.083 0.29334000000000016
176.403 0.2533400000000001
176.722 0.2766700000000002
177.044 0.2566700000000002
177.363 0.31000000000000005
177.683 0.2766700000000002
178.002 0.2633399999999999
178.322 0.31667000000000023
178.641 0.27334000000000014
178.961 0.28000000000000025
179.28 0.27
179.6 0.27
179.919 0.2999999999999998
180.239 0.31000000000000005
180.558 0.2566700000000002
180.877 0.26666999999999996
181.197 0.2766700000000002
181.516 0.31999999999999984
181.838 0.2533400000000001
182.157 0.28000000000000025
182.476 0.27
182.796 0.26666999999999996
183.115 0.2433399999999999
183.434 0.30333999999999994
183.754 0.2433399999999999
184.073 0.22999999999999998
184.392 0.2333400000000001
184.712 0.2533400000000001
185.031 0.2566700000000002
185.35 0.28667
185.669 0.2833399999999999
185.989 0.2833399999999999
186.308 0.2833399999999999
186.627 0.26000000000000023
186.946 0.2766700000000002
187.265 0.2633399999999999
187.585 0.26666999999999996
187.904 0.29000000000000004
188.223 0.27
188.542 0.2533400000000001
188.861 0.27334000000000014
189.18 0.2533400000000001
189.499 0.2766700000000002
189.818 0.28000000000000025
190.138 0.27334000000000014
190.457 0.22999999999999998
190.776 0.26666999999999996
191.095 0.27
191.414 0.28667
191.733 0.25
192.052 0.28667
192.371 0.2766700000000002
192.69 0.30333999999999994
193.009 0.2766700000000002
193.328 0.2633399999999999
193.647 0.26000000000000023
193.966 0.2966700000000002
194.285 0.2766700000000002
194.602 0.30667
194.92 0.28000000000000025
195.239 0.29000000000000004
195.558 0.2566700000000002
195.877 0.28667
196.196 0.2633399999999999
196.515 0.28000000000000025
196.834 0.27
197.153 0.29334000000000016
197.471 0.27
197.79 0.31667000000000023
198.109 0.2833399999999999
198.428 0.28667
198.747 0.28667
199.065 0.2766700000000002
199.382 0.29334000000000016
199.701 0.27334000000000014
200.02 0.25
200.338 0.30333999999999994
200.657 0.2833399999999999
200.976 0.25
201.295 0.27
201.613 0.2833399999999999
201.932 0.29000000000000004
202.251 0.2533400000000001
202.567 0.28667
202.886 0.30667
203.204 0.27
203.523 0.29334000000000016
203.842 0.2966700000000002
204.16 0.28000000000000025
204.479 0.26000000000000023
204.797 0.26000000000000023
205.114 0.28667
205.433 0.2833399999999999
205.751 0.29334000000000016
206.07 0.2833399999999999
206.388 0.26666999999999996
206.707 0.31000000000000005
207.025 0.29334000000000016
207.342 0.26000000000000023
207.66 0.28667
207.979 0.26000000000000023
208.297 0.31000000000000005
208.615 0.2633399999999999
208.934 0.2766700000000002
209.25 0.29000000000000004
209.569 0.26666999999999996
209.887 0.29000000000000004
210.205 0.2766700000000002
210.524 0.29000000000000004
210.842 0.27
211.158 0.27334000000000014
211.477 0.29334000000000016
211.795 0.27334000000000014
212.113 0.26666999999999996
212.432 0.2833399999999999
212.75 0.2533400000000001
213.066 0.2766700000000002
213.385 0.2766700000000002
213.703 0.2833399999999999
214.021 0.27334000000000014
214.339 0.29000000000000004
214.656 0.2766700000000002
214.974 0.3333400000000002
215.292 0.2966700000000002
215.61 0.29334000000000016
215.926 0.22999999999999998
216.245 0.30667
216.563 0.28667
216.881 0.29000000000000004
217.199 0.28667
217.515 0.29334000000000016
217.833 0.28667
218.151 0.26000000000000023
218.469 0.2566700000000002
218.785 0.27
219.104 0.2966700000000002
219.422 0.29000000000000004
219.74 0.2833399999999999
220.056 0.2966700000000002
220.374 0.26666999999999996
220.692 0.31000000000000005
221.01 0.2566700000000002
221.326 0.27334000000000014
221.644 0.2999999999999998
221.962 0.2966700000000002
222.28 0.2833399999999999
222.596 0.3133400000000002
222.914 0.28000000000000025
223.232 0.28667
223.547 0.28000000000000025
223.865 0.28667
224.183 0.27
224.501 0.24666999999999994
224.817 0.26666999999999996
225.135 0.27334000000000014
225.453 0.24666999999999994
225.768 0.29000000000000004
226.086 0.29000000000000004
226.404 0.27
226.722 0.2999999999999998
227.038 0.31667000000000023
227.355 0.2766700000000002
227.673 0.27334000000000014
227.989 0.3133400000000002
228.307 0.28000000000000025
228.625 0.28667
228.94 0.2766700000000002
229.258 0.28667
229.576 0.27334000000000014
229.891 0.2966700000000002
230.209 0.30333999999999994
230.527 0.2400000000000002
230.842 0.2633399999999999
231.16 0.2833399999999999
231.478 0.2766700000000002
231.793 0.29334000000000016
232.111 0.2999999999999998
232.428 0.2533400000000001
232.744 0.2966700000000002
233.062 0.2533400000000001
233.379 0.26000000000000023
233.695 0.27334000000000014
234.012 0.28000000000000025
234.33 0.23667000000000016
234.645 0.28000000000000025
234.963 0.29000000000000004
235.278 0.2833399999999999
235.596 0.27
235.913 0.27
236.229 0.2433399999999999
236.546 0.2999999999999998
236.864 0.2766700000000002
237.179 0.28000000000000025
237.497 0.25
237.812 0.2566700000000002
238.129 0.28667
238.447 0.25
238.762 0.27334000000000014
239.08 0.2566700000000002
239.395 0.27334000000000014
239.712 0.2833399999999999
240.03 0.26666999999999996
240.345 0.29334000000000016
240.662 0.2833399999999999
240.978 0.29334000000000016
241.295 0.2566700000000002
241.61 0.2833399999999999
241.927 0.28667
242.245 0.29334000000000016
242.56 0.29000000000000004
242.877 0.28667
243.192 0.2533400000000001
243.51 0.25
243.825 0.29000000000000004
244.142 0.2533400000000001
244.459 0.2533400000000001
244.774 0.27
245.092 0.2633399999999999
245.407 0.28000000000000025
245.724 0.26666999999999996
246.039 0.2533400000000001
246.356 0.27334000000000014
246.671 0.29000000000000004
246.988 0.2533400000000001
247.303 0.27334000000000014
247.62 0.27334000000000014
247.938 0.26000000000000023
248.253 0.24666999999999994
248.57 0.26666999999999996
248.885 0.2633399999999999
249.202 0.27334000000000014
249.517 0.2766700000000002
249.834 0.2566700000000002
250.149 0.25
250.466 0.23667000000000016
250.781 0.2766700000000002
251.098 0.29000000000000004
251.412 0.2633399999999999
251.729 0.2566700000000002
252.044 0.2966700000000002
252.361 0.28000000000000025
252.676 0.2766700000000002
252.993 0.26666999999999996
253.308 0.27
253.625 0.29334000000000016
253.94 0.26666999999999996
254.256 0.25
254.571 0.29000000000000004
254.888 0.2566700000000002
255.203 0.2766700000000002
255.518 0.27334000000000014
255.834 0.28000000000000025
256.149 0.2833399999999999
256.466 0.2766700000000002
256.781 0.3133400000000002
257.097 0.2833399999999999
257.412 0.2533400000000001
257.729 0.27
258.044 0.2633399999999999
258.36 0.29000000000000004
258.675 0.30667
258.99 0.2633399999999999
259.306 0.19334000000000007
259.621 0.2833399999999999
259.938 0.2833399999999999
260.252 0.2566700000000002
260.569 0.28667
260.883 0.24666999999999994
261.198 0.2566700000000002
261.515 0.28667
261.829 0.27
262.146 0.28667
262.46 0.28000000000000025
262.775 0.26000000000000023
263.091 0.28000000000000025
263.406 0.26666999999999996
263.723 0.2400000000000002
264.037 0.2633399999999999
264.354 0.28000000000000025
264.668 0.24666999999999994
264.982 0.26000000000000023
265.299 0.25
265.613 0.24666999999999994
265.928 0.2433399999999999
266.244 0.25
266.559 0.28667
266.875 0.2566700000000002
267.189 0.31000000000000005
267.504 0.2633399999999999
267.82 0.30333999999999994
268.134 0.29334000000000016
268.449 0.2766700000000002
268.765 0.26666999999999996
269.079 0.28667
269.394 0.2766700000000002
269.71 0.2766700000000002
270.024 0.28667
270.341 0.29000000000000004
270.655 0.2766700000000002
270.969 0.25
271.286 0.2966700000000002
271.6 0.28667
271.914 0.2766700000000002
272.23 0.28667
272.544 0.2999999999999998
272.859 0.2633399999999999
273.175 0.2999999999999998
273.489 0.26000000000000023
273.803 0.26666999999999996
274.119 0.2566700000000002
274.433 0.26666999999999996
274.747 0.2533400000000001
275.062 0.29000000000000004
275.378 0.3133400000000002
275.692 0.2766700000000002
276.006 0.27
276.322 0.26666999999999996
276.636 0.28667
276.95 0.28000000000000025
277.266 0.2966700000000002
277.58 0.22999999999999998
277.894 0.30333999999999994
278.208 0.2833399999999999
278.524 0.2766700000000002
278.838 0.26666999999999996
279.152 0.28000000000000025
279.468 0.2566700000000002
279.782 0.2766700000000002
280.096 0.24666999999999994
280.41 0.29000000000000004
280.726 0.25
281.04 0.27
281.354 0.27334000000000014
281.668 0.26000000000000023
281.983 0.26000000000000023
282.297 0.29000000000000004
282.611 0.2833399999999999
282.925 0.2766700000000002
283.241 0.28000000000000025
283.555 0.26000000000000023
283.868 0.2766700000000002
284.182 0.24666999999999994
284.498 0.26666999999999996
284.812 0.2833399999999999
285.126 0.2833399999999999
285.439 0.28000000000000025
285.753 0.26666999999999996
286.069 0.23667000000000016
286.383 0.2999999999999998
286.696 0.28667
287.01 0.31000000000000005
287.326 0.2633399999999999
287.639 0.2766700000000002
287.953 0.27334000000000014
288.267 0.28000000000000025
288.58 0.31000000000000005
288.896 0.2400000000000002
289.21 0.27
289.523 0.29000000000000004
289.837 0.27
290.15 0.27
290.466 0.28000000000000025
290.78 0.29334000000000016
291.093 0.30333999999999994
291.407 0.27
291.72 0.2533400000000001
292.034 0.29334000000000016
292.349 0.2966700000000002
292.663 0.29000000000000004
292.976 0.2766700000000002
293.29 0.28000000000000025
293.603 0.26666999999999996
293.917 0.2766700000000002
294.232 0.30333999999999994
294.546 0.28000000000000025
294.859 0.2566700000000002
295.172 0.2966700000000002
295.486 0.26666999999999996
295.799 0.26666999999999996
296.113 0.2533400000000001
296.428 0.31667000000000023
296.741 0.29000000000000004
297.055 0.30333999999999994
297.368 0.2766700000000002
297.681 0.24666999999999994
297.995 0.2433399999999999
298.308 0.3133400000000002
298.621 0.28000000000000025
298.937 0.28000000000000025
299.25 0.28667
299.563 0.26000000000000023
299.876 0.26666999999999996
300.19 0.28667
300.503 0.2833399999999999
300.816 0.27334000000000014
301.129 0.26666999999999996
301.442 0.2766700000000002
301.756 0.2566700000000002
302.071 0.29334000000000016
302.384 0.27
302.697 0.2766700000000002
303.01 0.26000000000000023
303.323 0.2566700000000002
303.637 0.2433399999999999
303.95 0.2533400000000001
304.263 0.27334000000000014
304.576 0.24666999999999994
304.889 0.29334000000000016
305.202 0.27334000000000014
305.515 0.27
305.828 0.26666999999999996
306.141 0.29334000000000016
306.456 0.31667000000000023
306.769 0.26666999999999996
307.082 0.29000000000000004
307.395 0.30333999999999994
307.708 0.2633399999999999
308.021 0.30667
308.334 0.28667
308.647 0.2833399999999999
308.96 0.2766700000000002
309.273 0.29000000000000004
309.586 0.2766700000000002
309.899 0.2833399999999999
310.212 0.2833399999999999
310.525 0.29000000000000004
310.838 0.23667000000000016
311.15 0.30667
311.463 0.27
311.776 0.29000000000000004
312.089 0.27
312.402 0.29000000000000004
312.715 0.27
313.027 0.3133400000000002
313.34 0.2833399999999999
313.653 0.26666999999999996
313.966 0.25
314.278 0.2766700000000002
314.591 0.29000000000000004
314.904 0.28000000000000025
315.217 0.28000000000000025
315.529 0.2766700000000002
315.842 0.2833399999999999
316.155 0.25
316.467 0.2566700000000002
316.78 0.30333999999999994
317.093 0.29000000000000004
317.405 0.27
317.718 0.2966700000000002
318.031 0.27334000000000014
318.343 0.2766700000000002
318.656 0.2633399999999999
318.969 0.28000000000000025
319.281 0.2966700000000002
319.592 0.30667
319.904 0.2833399999999999
320.217 0.29334000000000016
320.529 0.2433399999999999
320.842 0.23667000000000016
321.154 0.30667
321.467 0.29334000000000016
321.779 0.2966700000000002
322.092 0.2766700000000002
322.404 0.2999999999999998
322.717 0.27334000000000014
323.029 0.2966700000000002
323.342 0.2766700000000002
323.654 0.2766700000000002
323.965 0.30333999999999994
324.277 0.30667
324.589 0.31667000000000023
324.902 0.2966700000000002
325.214 0.29000000000000004
325.527 0.29334000000000016
325.839 0.32667
326.151 0.28000000000000025
326.464 0.31667000000000023
326.776 0.29000000000000004
327.086 0.27334000000000014
327.399 0.29062031593539217
327.711 0.29120009199377295
328.023 0.2901779224100589
328.335 0.2915809413428194
328.648 0.29006880712802285
328.96 0.29110633943053577
329.27 0.2912829554063605
329.582 0.2896616760548931
329.895 0.2902708536815304
330.207 0.29047123145924836
330.519 0.29038228401884725
330.831 0.289757649244883
331.143 0.2911560049957984
331.454 0.29095352650925665
331.766 0.2907068901294485
332.078 0.2897394007650065
332.39 0.29265851978862667
332.702 0.29071578596726333
333.014 0.2902493567357176
333.326 0.2906867055101965
333.636 0.26666999999999996
333.948 0.3333400000000002
334.261 0.2566700000000002
334.573 0.2999999999999998
334.885 0.30667
335.195 0.28667
335.507 0.29000000000000004
335.819 0.2766700000000002
336.131 0.2566700000000002
336.443 0.2966700000000002
336.753 0.30333999999999994
337.065 0.29000000000000004
337.377 0.28667
337.689 0.29000000000000004
338.001 0.31667000000000023
338.31 0.32667
338.622 0.34334
338.934 0.3133400000000002
339.246 0.31667000000000023
339.558 0.26666999999999996
339.868 0.3133400000000002
340.18 0.30333999999999994
340.492 0.31667000000000023
340.804 0.28667
341.113 0.3500000000000001
341.425 0.32667
341.737 0.30333999999999994
342.049 0.30667
342.361 0.2766700000000002
342.67 0.3500000000000001
342.982 0.2833399999999999
343.294 0.2999999999999998
343.606 0.29334000000000016
343.915 0.30333999999999994
344.227 0.31999999999999984
344.539 0.29000000000000004
344.849 0.2999999999999998
345.16 0.29000000000000004
345.472 0.27334000000000014
345.784 0.28667
346.093 0.29334000000000016
346.405 0.27334000000000014
346.717 0.33667000000000025
347.028 0.2966700000000002
347.338 0.2999999999999998
347.649 0.3133400000000002
347.961 0.30333999999999994
348.271 0.32333999999999996
348.582 0.3333400000000002
348.894 0.28667
349.205 0.30333999999999994
349.515 0.31000000000000005
349.826 0.34334
350.138 0.32333999999999996
350.447 0.2833399999999999
350.759 0.31999999999999984
351.07 0.2966700000000002
351.38 0.2633399999999999
351.691 0.31000000000000005
352.003 0.2999999999999998
352.312 0.30667
352.624 0.30667
352.935 0.2966700000000002
353.245 0.30667
353.556 0.32667
353.867 0.28000000000000025
354.177 0.2766700000000002
354.488 0.2999999999999998
354.799 0.2966700000000002
355.109 0.3133400000000002
355.42 0.30667
355.732 0.2966700000000002
356.041 0.36999999999999966
356.352 0.33999999999999986
356.663 0.3133400000000002
356.973 0.2966700000000002
357.284 0.31000000000000005
357.593 0.31667000000000023
357.905 0.29000000000000004
358.216 0.2999999999999998
358.525 0.31999999999999984
358.836 0.32333999999999996
359.147 0.32667
359.457 0.33999999999999986
359.768 0.33000000000000007
360.077 0.3500000000000001
360.388 0.2966700000000002
360.699 0.28667
361.008 0.31000000000000005
361.32 0.3133400000000002
361.629 0.3566699999999998
361.94 0.32333999999999996
362.251 0.2833399999999999
362.56 0.29000000000000004
362.871 0.3133400000000002
363.18 0.33667000000000025
363.491 0.33000000000000007
363.8 0.2966700000000002
364.111 0.33000000000000007
364.422 0.28000000000000025
364.731 0.2766700000000002
365.042 0.33667000000000025
365.351 0.32667
365.662 0.31000000000000005
365.971 0.2999999999999998
366.282 0.29334000000000016
366.593 0.33000000000000007
366.902 0.32333999999999996
367.213 0.30333999999999994
367.522 0.31000000000000005
367.833 0.28667
368.142 0.30667
368.453 0.3133400000000002
368.762 0.30667
369.073 0.33999999999999986
369.381 0.27
369.692 0.28000000000000025
370.001 0.31667000000000023
370.312 0.30333999999999994
370.623 0.30333999999999994
370.932 0.32667
371.242 0.28000000000000025
371.551 0.28667
371.862 0.2966700000000002
372.171 0.3133400000000002
372.482 0.31000000000000005
372.79 0.31999999999999984
373.101 0.32333999999999996
373.41 0.34667000000000003
373.721 0.32333999999999996
374.029 0.3133400000000002
374.34 0.32333999999999996
374.649 0.27
374.959 0.32333999999999996
375.268 0.2999999999999998
375.577 0.34667000000000003
375.887 0.32333999999999996
376.196 0.2966700000000002
376.506 0.31000000000000005
376.815 0.32667
377.126 0.2766700000000002
377.434 0.31999999999999984
377.745 0.34667000000000003
378.053 0.32667
378.364 0.33667000000000025
378.672 0.2833399999999999
378.983 0.34667000000000003
379.292 0.3500000000000001
379.6 0.3133400000000002
379.911 0.3333400000000002
380.219 0.2999999999999998
380.53 0.33667000000000025
380.838 0.35333999999999977
381.148 0.31000000000000005
381.457 0.3133400000000002
381.767 0.2999999999999998
382.076 0.32333999999999996
382.384 0.35333999999999977
382.695 0.31667000000000023
383.003 0.29334000000000016
383.313 0.30333999999999994
383.622 0.32667
383.93 0.32667
384.24 0.31667000000000023
384.549 0.3566699999999998
384.859 0.30667
385.167 0.31667000000000023
385.476 0.2633399999999999
385.786 0.30333999999999994
386.094 0.3333400000000002
386.405 0.32667
386.713 0.34667000000000003
387.021 0.29334000000000016
387.331 0.35333999999999977
387.64 0.27334000000000014
387.948 0.2833399999999999
388.258 0.3333400000000002
388.566 0.30667
388.877 0.33999999999999986
389.185 0.34334
389.493 0.3133400000000002
389.803 0.29000000000000004
390.111 0.33667000000000025
390.419 0.30333999999999994
390.729 0.35333999999999977
391.038 0.30667
391.346 0.3500000000000001
391.656 0.32333999999999996
391.964 0.33999999999999986
392.272 0.33000000000000007
392.582 0.31000000000000005
392.89 0.33667000000000025
393.198 0.3333400000000002
393.508 0.33999999999999986
393.816 0.3133400000000002
394.124 0.3133400000000002
394.434 0.33000000000000007
394.742 0.32333999999999996
395.05 0.36334000000000044
395.36 0.36334000000000044
395.668 0.31667000000000023
395.976 0.3333400000000002
396.286 0.33999999999999986
396.594 0.33999999999999986
396.902 0.34667000000000003
397.21 0.35333999999999977
397.52 0.36334000000000044
397.828 0.31667000000000023
398.135 0.38334
398.445 0.34667000000000003
398.753 0.34667000000000003
399.061 0.32333999999999996
399.369 0.31999999999999984
399.679 0.34667000000000003
399.987 0.3333400000000002
400.294 0.3500000000000001
400.604 0.33999999999999986
400.912 0.33999999999999986
401.22 0.32333999999999996
401.527 0.2966700000000002
401.837 0.35333999999999977
402.145 0.3500000000000001
402.453 0.3566699999999998
402.76 0.36999999999999966
403.07 0.3900000000000001
403.378 0.41334000000000026
403.686 0.3500000000000001
403.993 0.3566699999999998
404.303 0.34334
404.611 0.3766700000000003
404.918 0.3733400000000002
405.226 0.34667000000000003
405.533 0.3599999999999999
405.843 0.34334
406.151 0.3566699999999998
406.458 0.33999999999999986
406.766 0.34334
407.076 0.33000000000000007
407.383 0.3733400000000002
407.691 0.34667000000000003
407.998 0.35333999999999977
408.306 0.3500000000000001
408.615 0.3566699999999998
408.923 0.3766700000000003
409.23 0.3500000000000001
409.538 0.33667000000000025
409.845 0.34667000000000003
410.153 0.34334
410.462 0.3333400000000002
410.77 0.34667000000000003
411.077 0.33667000000000025
411.384 0.3500000000000001
411.692 0.31000000000000005
412.001 0.33999999999999986
412.309 0.3766700000000003
412.616 0.3333400000000002
412.923 0.32667
413.231 0.36999999999999966
413.538 0.3500000000000001
413.845 0.38000000000000034
414.155 0.3500000000000001
414.462 0.3333400000000002
414.769 0.32333999999999996
415.077 0.3500000000000001
415.384 0.32333999999999996
415.691 0.34334
415.999 0.3666699999999996
416.308 0.34334
416.615 0.3599999999999999
416.922 0.3500000000000001
417.23 0.33000000000000007
417.537 0.32667
417.844 0.32333999999999996
418.151 0.3733400000000002
418.458 0.31999999999999984
418.768 0.3500000000000001
419.075 0.3599999999999999
419.382 0.33000000000000007
419.689 0.3500000000000001
419.996 0.28000000000000025
420.303 0.36334000000000044
420.61 0.35333999999999977
420.918 0.3566699999999998
421.225 0.3566699999999998
421.532 0.3599999999999999
421.841 0.2966700000000002
422.148 0.31667000000000023
422.455 0.3766700000000003
422.762 0.3733400000000002
423.069 0.29334000000000016
423.376 0.36334000000000044
423.683 0.2966700000000002
423.99 0.32333999999999996
424.297 0.33000000000000007
424.604 0.36334000000000044
424.911 0.32667
425.218 0.31999999999999984
425.525 0.32667
425.832 0.33667000000000025
426.139 0.31667000000000023
426.446 0.31999999999999984
426.753 0.3500000000000001
427.061 0.3500000000000001
427.368 0.3333400000000002
427.675 0.3133400000000002
427.982 0.33000000000000007
428.289 0.34667000000000003
428.596 0.31667000000000023
428.903 0.38000000000000034
429.209 0.3566699999999998
429.516 0.35333999999999977
429.823 0.33999999999999986
430.13 0.33667000000000025
430.437 0.30667
430.743 0.3933399999999998
431.05 0.33000000000000007
431.357 0.32667
431.664 0.33667000000000025
431.97 0.34334
432.277 0.32333999999999996
432.584 0.2966700000000002
432.891 0.27334000000000014
433.197 0.33000000000000007
433.504 0.3500000000000001
433.811 0.2999999999999998
434.117 0.3666699999999996
434.424 0.36334000000000044
434.731 0.3133400000000002
435.037 0.33000000000000007
435.344 0.3500000000000001
435.65 0.32333999999999996
435.957 0.29334000000000016
436.262 0.29000000000000004
436.568 0.30333999999999994
436.875 0.32667
437.181 0.33999999999999986
437.488 0.29334000000000016
437.794 0.31667000000000023
438.101 0.3133400000000002
438.407 0.31667000000000023
438.714 0.3333400000000002
439.02 0.31000000000000005
439.327 0.33000000000000007
439.633 0.3599999999999999
439.94 0.3133400000000002
440.246 0.31999999999999984
440.553 0.30667
440.859 0.29000000000000004
441.163 0.32333999999999996
441.47 0.32333999999999996
441.776 0.3133400000000002
442.083 0.30667
442.389 0.31667000000000023
442.695 0.33667000000000025
443.002 0.31000000000000005
443.308 0.31000000000000005
443.614 0.33999999999999986
443.921 0.3333400000000002
444.225 0.34334
444.531 0.3500000000000001
444.838 0.33000000000000007
445.144 0.31667000000000023
445.45 0.32667
445.757 0.30333999999999994
446.063 0.32333999999999996
446.369 0.31999999999999984
446.675 0.31667000000000023
446.979 0.34334
447.286 0.28667
447.592 0.3133400000000002
447.898 0.27
448.204 0.28667
448.51 0.28000000000000025
448.817 0.31000000000000005
449.121 0.3333400000000002
449.427 0.28667
449.733 0.28667
450.039 0.33000000000000007
450.345 0.31667000000000023
450.651 0.30667
450.955 0.3133400000000002
451.261 0.3333400000000002
451.568 0.32667
451.874 0.30667
452.18 0.32333999999999996
452.486 0.3133400000000002
452.79 0.2966700000000002
453.096 0.33999999999999986
453.402 0.31667000000000023
453.708 0.32333999999999996
454.014 0.3333400000000002
454.318 0.28667
454.624 0.3566699999999998
454.93 0.3333400000000002
455.236 0.3133400000000002
455.541 0.31000000000000005
455.845 0.32667
456.151 0.29000000000000004
456.457 0.32667
456.763 0.34667000000000003
457.067 0.30333999999999994
457.373 0.2999999999999998
457.679 0.3500000000000001
457.985 0.32333999999999996
458.29 0.33000000000000007
458.594 0.3500000000000001
458.9 0.30667
459.206 0.30667
459.512 0.35333999999999977
459.815 0.33999999999999986
460.121 0.30333999999999994
460.427 0.36334000000000044
460.733 0.29334000000000016
461.036 0.2999999999999998
461.342 0.32667
461.648 0.31667000000000023
461.954 0.34334
462.257 0.33000000000000007
462.563 0.32667
462.869 0.3599999999999999
463.172 0.30333999999999994
463.478 0.3133400000000002
463.784 0.34334
464.089 0.31999999999999984
464.393 0.31999999999999984
464.699 0.34334
465.004 0.3133400000000002
465.308 0.32333999999999996
465.613 0.33999999999999986
465.919 0.28667
466.225 0.33667000000000025
466.528 0.33000000000000007
466.834 0.3333400000000002
467.139 0.31999999999999984
467.443 0.32333999999999996
467.748 0.32333999999999996
468.054 0.31999999999999984
468.357 0.3333400000000002
468.663 0.35333999999999977
468.968 0.3333400000000002
469.272 0.32667
469.577 0.31999999999999984
469.883 0.32333999999999996
470.186 0.3333400000000002
470.492 0.3566699999999998
470.797 0.3599999999999999
471.1 0.3500000000000001
471.406 0.33000000000000007
471.711 0.31999999999999984
472.014 0.36334000000000044
472.32 0.3933399999999998
472.625 0.4766699999999999
472.929 0.5900000000000003
473.234 0.5500000000000003
473.539 0.5699999999999998
473.843 0.5766700000000005
474.148 0.5533399999999999
474.451 0.5866700000000002
474.756 0.5900000000000003
475.062 0.5733400000000004
475.365 0.5533399999999999
475.67 0.52
475.973 0.4866699999999997
476.279 0.49334000000000033
476.584 0.3666699999999996
476.887 0.36334000000000044
477.192 0.33999999999999986
477.498 0.3500000000000001
477.801 0.31000000000000005
478.106 0.3566699999999998
478.409 0.31999999999999984
478.714 0.34667000000000003
479.017 0.3566699999999998
479.322 0.28000000000000025
479.628 0.3500000000000001
479.931 0.31000000000000005
480.236 0.33667000000000025
480.539 0.33667000000000025
480.844 0.33667000000000025
481.147 0.27334000000000014
481.452 0.32667
481.757 0.33667000000000025
482.06 0.2966700000000002
482.365 0.33667000000000025
482.668 0.33999999999999986
482.973 0.31667000000000023
483.276 0.2999999999999998
483.581 0.3500000000000001
483.884 0.3333400000000002
484.189 0.29000000000000004
484.494 0.3333400000000002
484.797 0.33667000000000025
485.102 0.3333400000000002
485.405 0.30667
485.71 0.32333999999999996
486.013 0.33667000000000025
486.318 0.26666999999999996
486.621 0.34667000000000003
486.925 0.32333999999999996
487.228 0.31000000000000005
487.533 0.33000000000000007
487.836 0.33000000000000007
488.141 0.35333999999999977
488.444 0.32333999999999996
488.748 0.31667000000000023
489.051 0.3333400000000002
489.356 0.33999999999999986
489.659 0.3133400000000002
489.964 0.3500000000000001
490.266 0.3133400000000002
490.571 0.33999999999999986
490.874 0.2833399999999999
491.179 0.34334
491.481 0.30667
491.786 0.38334
492.089 0.32667
492.393 0.34334
492.696 0.32333999999999996
493.001 0.2999999999999998
493.303 0.31667000000000023
493.606 0.34667000000000003
493.911 0.3333400000000002
494.213 0.31667000000000023
494.518 0.34334
494.821 0.36999999999999966
495.125 0.3566699999999998
495.428 0.28000000000000025
495.732 0.3566699999999998
496.035 0.3500000000000001
496.337 0.33000000000000007
496.642 0.3566699999999998
496.945 0.3333400000000002
497.249 0.34334
497.552 0.31667000000000023
497.856 0.31667000000000023
498.159 0.36999999999999966
498.461 0.3133400000000002
498.766 0.3333400000000002
499.068 0.3333400000000002
499.372 0.3333400000000002
499.675 0.3333400000000002
499.977 0.32333999999999996
500.282 0.34334
500.584 0.30333999999999994
500.889 0.32333999999999996
501.191 0.32667
501.493 0.34667000000000003
501.798 0.30667
502.1 0.3133400000000002
502.402 0.32333999999999996
502.707 0.3333400000000002
503.009 0.36334000000000044
503.314 0.33000000000000007
503.616 0.32333999999999996
503.918 0.31667000000000023
504.222 0.30333999999999994
504.525 0.36334000000000044
504.827 0.32333999999999996
505.131 0.34667000000000003
505.433 0.2999999999999998
505.736 0.3566699999999998
506.04 0.34334
506.342 0.34334
506.646 0.32667
506.949 0.3333400000000002
507.251 0.31999999999999984
507.555 0.31000000000000005
507.857 0.2966700000000002
508.159 0.3133400000000002
508.461 0.3500000000000001
508.766 0.27334000000000014
509.068 0.36334000000000044
509.37 0.3500000000000001
509.674 0.33999999999999986
509.976 0.32333999999999996
510.278 0.3566699999999998
510.582 0.32333999999999996
510.884 0.31000000000000005
511.186 0.33999999999999986
511.49 0.3333400000000002
511.792 0.3333400000000002
512.094 0.32667
512.396 0.3566699999999998
512.701 0.34667000000000003
513.003 0.3933399999999998
513.305 0.3500000000000001
513.609 0.33667000000000025
513.91 0.34334
514.212 0.38334
514.514 0.3333400000000002
514.818 0.31999999999999984
515.12 0.33999999999999986
515.422 0.34334
515.724 0.3766700000000003
516.028 0.33999999999999986
516.33 0.34667000000000003
516.632 0.33000000000000007
516.934 0.2999999999999998
517.237 0.32667
517.539 0.3566699999999998
517.841 0.31999999999999984
518.143 0.3766700000000003
518.447 0.29334000000000016
518.749 0.28000000000000025
519.05 0.2966700000000002
519.352 0.33000000000000007
519.656 0.30667
519.958 0.3333400000000002
520.26 0.36334000000000044
520.561 0.31999999999999984
520.863 0.31999999999999984
521.167 0.3599999999999999
521.468 0.31667000000000023
521.77 0.33000000000000007
522.072 0.30667
522.376 0.32333999999999996
522.677 0.34334
522.979 0.32667
523.281 0.34667000000000003
523.582 0.31667000000000023
523.884 0.31667000000000023
524.187 0.3333400000000002
524.489 0.31999999999999984
524.791 0.34334
525.092 0.32333999999999996
525.394 0.34334
525.697 0.31999999999999984
525.999 0.3333400000000002
526.301 0.32333999999999996
526.602 0.2999999999999998
526.904 0.31667000000000023
527.205 0.30667
527.507 0.3133400000000002
527.81 0.31000000000000005
528.112 0.32333999999999996
528.413 0.3333400000000002
528.715 0.3500000000000001
529.016 0.32667
529.318 0.33999999999999986
529.619 0.31667000000000023
529.922 0.28667
530.224 0.31000000000000005
530.525 0.30667
530.827 0.31667000000000023
531.128 0.31667000000000023
531.429 0.2999999999999998
531.731 0.3500000000000001
532.032 0.33000000000000007
532.336 0.29334000000000016
532.637 0.34667000000000003
532.938 0.31667000000000023
533.24 0.33667000000000025
533.541 0.3500000000000001
533.842 0.2999999999999998
534.143 0.32333999999999996
534.445 0.30333999999999994
534.746 0.34667000000000003
535.047 0.29334000000000016
535.351 0.29334000000000016
535.652 0.3500000000000001
535.953 0.27
536.254 0.30667
536.555 0.3133400000000002
536.857 0.29000000000000004
537.158 0.28000000000000025
537.459 0.27
537.76 0.27
538.061 0.32667
538.362 0.31000000000000005
538.664 0.31000000000000005
538.965 0.30333999999999994
539.266 0.2833399999999999
539.567 0.27334000000000014
539.868 0.27
540.169 0.30667
540.472 0.27
540.773 0.28667
541.074 0.26000000000000023
541.375 0.30667
541.677 0.30667
541.978 0.31000000000000005
542.279 0.2966700000000002
542.58 0.32333999999999996
542.881 0.26666999999999996
543.182 0.31667000000000023
543.483 0.22999999999999998
543.784 0.2766700000000002
544.085 0.2566700000000002
544.385 0.29000000000000004
544.686 0.27
544.987 0.29334000000000016
545.288 0.30667
545.589 0.28667
545.89 0.2633399999999999
546.191 0.25
546.492 0.29000000000000004
546.793 0.28667
547.094 0.28667
547.394 0.2566700000000002
547.695 0.2999999999999998
547.996 0.2566700000000002
548.297 0.27
548.596 0.30333999999999994
548.897 0.28667
549.197 0.2766700000000002
549.498 0.2833399999999999
549.799 0.27
550.1 0.2400000000000002
550.4 0.2333400000000001
550.701 0.2766700000000002
551.002 0.2566700000000002
551.303 0.27
551.603 0.2533400000000001
551.904 0.2999999999999998
552.205 0.2833399999999999
552.505 0.2200000000000002
552.806 0.22666999999999993
553.107 0.30667
553.407 0.26000000000000023
553.706 0.28667
554.007 0.27
554.307 0.27334000000000014
554.608 0.2966700000000002
554.909 0.2633399999999999
555.209 0.2833399999999999
555.51 0.28000000000000025
555.81 0.32333999999999996
556.111 0.26666999999999996
556.411 0.21667000000000014
556.71 0.26666999999999996
557.01 0.29000000000000004
557.311 0.27334000000000014
557.612 0.26000000000000023
557.912 0.29000000000000004
558.213 0.26666999999999996
558.513 0.26000000000000023
558.813 0.27334000000000014
559.112 0.28000000000000025
559.412 0.26000000000000023
559.713 0.27
560.013 0.2566700000000002
560.314 0.28667
560.614 0.2766700000000002
560.914 0.2533400000000001
561.213 0.25
561.513 0.2533400000000001
561.814 0.27334000000000014
562.114 0.23667000000000016
562.414 0.23667000000000016
562.715 0.2633399999999999
563.015 0.2833399999999999
563.313 0.2533400000000001
563.614 0.2066699999999999
563.914 0.2633399999999999
564.214 0.25
564.515 0.3133400000000002
564.813 0.2766700000000002
565.113 0.2433399999999999
565.413 0.27
565.714 0.2766700000000002
566.014 0.26000000000000023
566.312 0.27
566.612 0.2400000000000002
566.912 0.22999999999999998
567.213 0.2533400000000001
567.513 0.2400000000000002
567.811 0.2833399999999999
568.111 0.2766700000000002
568.411 0.26000000000000023
568.712 0.27
569.012 0.25
569.31 0.27334000000000014
569.61 0.26000000000000023
569.91 0.22666999999999993
570.21 0.29000000000000004
570.508 0.24666999999999994
570.808 0.26000000000000023
571.108 0.2566700000000002
571.408 0.26000000000000023
571.706 0.25
572.006 0.2633399999999999
572.306 0.2433399999999999
572.607 0.2400000000000002
572.904 0.25
573.204 0.2533400000000001
573.505 0.2400000000000002
573.805 0.28000000000000025
574.102 0.2333400000000001
574.402 0.27334000000000014
574.702 0.22666999999999993
575.002 0.26666999999999996
575.3 0.2833399999999999
575.6 0.26000000000000023
575.9 0.2433399999999999
576.198 0.27
576.498 0.2533400000000001
576.798 0.26666999999999996
577.098 0.2766700000000002
577.395 0.2400000000000002
577.695 0.2566700000000002
577.995 0.24666999999999994
578.293 0.26000000000000023
578.593 0.26000000000000023
578.893 0.26000000000000023
579.19 0.2566700000000002
579.49 0.27
579.79 0.2066699999999999
580.088 0.23667000000000016
580.387 0.2766700000000002
580.687 0.26666999999999996
580.985 0.2533400000000001
581.285 0.2533400000000001
581.584 0.2766700000000002
581.882 0.2566700000000002
582.182 0.27
582.482 0.29000000000000004
582.779 0.2633399999999999
583.079 0.23667000000000016
583.378 0.2533400000000001
583.676 0.2566700000000002
583.976 0.27334000000000014
584.275 0.2566700000000002
584.573 0.22999999999999998
584.873 0.28000000000000025
585.17 0.24666999999999994
585.47 0.2400000000000002
585.769 0.26000000000000023
586.067 0.2633399999999999
586.367 0.2566700000000002
586.666 0.2533400000000001
586.964 0.19667000000000012
587.263 0.22333999999999987
587.561 0.29334000000000016
587.86 0.2566700000000002
588.16 0.28667
588.457 0.24666999999999994
588.757 0.27
589.054 0.26666999999999996
589.354 0.26000000000000023
589.653 0.25
589.951 0.28000000000000025
590.25 0.2533400000000001
590.547 0.28000000000000025
590.847 0.26000000000000023
591.144 0.2999999999999998
591.444 0.2533400000000001
591.743 0.27
592.04 0.26000000000000023
592.34 0.2766700000000002
592.637 0.2766700000000002
592.936 0.2833399999999999
593.234 0.27334000000000014
593.533 0.24666999999999994
593.832 0.26000000000000023
594.13 0.26000000000000023
594.429 0.27
594.726 0.2433399999999999
595.026 0.2833399999999999
595.323 0.23667000000000016
595.622 0.26666999999999996
595.919 0.28000000000000025
596.219 0.26000000000000023
596.516 0.25
596.815 0.22999999999999998
597.112 0.26666999999999996
597.411 0.2566700000000002
597.709 0.2633399999999999
598.008 0.2400000000000002
598.305 0.24666999999999994
598.604 0.28000000000000025
598.901 0.2833399999999999
599.2 0.24666999999999994
599.497 0.2433399999999999
599.797 0.29000000000000004
600.094 0.26000000000000023
600.393 0.2999999999999998
600.69 0.26000000000000023
600.989 0.2566700000000002
601.286 0.2766700000000002
601.585 0.26000000000000023
601.882 0.2966700000000002
602.181 0.2333400000000001
602.478 0.28000000000000025
602.777 0.28000000000000025
603.074 0.2333400000000001
603.373 0.25
603.67 0.25
603.969 0.2633399999999999
604.266 0.2400000000000002
604.563 0.29000000000000004
604.862 0.25
605.159 0.2633399999999999
605.458 0.26000000000000023
605.755 0.24666999999999994
606.054 0.27334000000000014
606.351 0.2400000000000002
606.65 0.2433399999999999
606.946 0.2533400000000001
607.243 0.2533400000000001
607.542 0.2766700000000002
607.839 0.22666999999999993
608.138 0.2566700000000002
608.435 0.2533400000000001
608.732 0.22666999999999993
609.03 0.25
609.327 0.22666999999999993
609.626 0.20000000000000018
609.923 0.2633399999999999
610.22 0.27334000000000014
610.518 0.24666999999999994
610.815 0.24666999999999994
611.114 0.25
611.411 0.27
611.707 0.2533400000000001
612.006 0.2533400000000001
612.303 0.27
612.601 0.22333999999999987
612.898 0.24666999999999994
613.195 0.20333999999999985
613.493 0.2533400000000001
613.79 0.26000000000000023
614.087 0.26666999999999996
614.385 0.2633399999999999
614.682 0.28667
614.979 0.2566700000000002
615.277 0.2766700000000002
615.574 0.2766700000000002
615.87 0.25
616.169 0.2400000000000002
616.466 0.23667000000000016
616.764 0.27334000000000014
617.061 0.25
617.357 0.28000000000000025
617.656 0.2333400000000001
617.952 0.2433399999999999
618.249 0.26000000000000023
618.545 0.2633399999999999
618.844 0.2533400000000001
619.14 0.2566700000000002
619.437 0.27
619.735 0.26000000000000023
620.032 0.2333400000000001
620.328 0.2533400000000001
620.626 0.26000000000000023
620.923 0.22666999999999993
621.219 0.26666999999999996
621.518 0.22666999999999993
621.814 0.2433399999999999
622.11 0.25
622.407 0.22333999999999987
622.705 0.21667000000000014
623.002 0.22999999999999998
623.298 0.2566700000000002
623.594 0.21667000000000014
623.893 0.22999999999999998
624.189 0.25
624.485 0.26000000000000023
624.784 0.22666999999999993
625.08 0.2333400000000001
625.376 0.26666999999999996
625.672 0.21334000000000009
625.971 0.2433399999999999
626.267 0.2400000000000002
626.563 0.2766700000000002
626.859 0.27
627.158 0.24666999999999994
627.454 0.25
627.75 0.22999999999999998
628.046 0.21334000000000009
628.342 0.2400000000000002
628.641 0.22999999999999998
628.937 0.22999999999999998
629.233 0.2566700000000002
629.529 0.2200000000000002
629.827 0.2433399999999999
630.123 0.2766700000000002
630.419 0.25
630.715 0.25
631.011 0.25
631.31 0.2533400000000001
631.606 0.22999999999999998
631.902 0.27334000000000014
632.198 0.25
632.494 0.2400000000000002
632.792 0.22333999999999987
633.088 0.25
633.384 0.21667000000000014
633.68 0.2433399999999999
633.976 0.2400000000000002
634.272 0.2333400000000001
634.57 0.2400000000000002
634.866 0.21667000000000014
635.162 0.2633399999999999
635.458 0.2200000000000002
635.754 0.21667000000000014
636.05 0.23667000000000016
636.347 0.22999999999999998
636.643 0.2200000000000002
636.939 0.22333999999999987
637.235 0.2433399999999999
637.531 0.2433399999999999
637.827 0.2400000000000002
638.123 0.20999999999999996
638.421 0.30667
638.716 0.2066699999999999
639.012 0.22666999999999993
639.308 0.27
639.604 0.21334000000000009
639.9 0.2066699999999999
640.195 0.2633399999999999
640.491 0.26000000000000023
640.789 0.2566700000000002
641.085 0.2333400000000001
641.381 0.2633399999999999
641.676 0.2400000000000002
641.972 0.26000000000000023
642.268 0.22999999999999998
642.563 0.2533400000000001
642.859 0.2566700000000002
643.155 0.2433399999999999
643.451 0.2633399999999999
643.746 0.23667000000000016
644.044 0.26000000000000023
644.34 0.25
644.635 0.2400000000000002
644.931 0.2633399999999999
645.227 0.24666999999999994
645.522 0.2433399999999999
645.818 0.16666999999999987
646.113 0.2566700000000002
646.409 0.22999999999999998
646.704 0.22999999999999998
647.0 0.2333400000000001
647.296 0.2400000000000002
647.591 0.20999999999999996
647.887 0.24666999999999994
648.182 0.2566700000000002
648.478 0.2066699999999999
648.773 0.2400000000000002
649.069 0.2766700000000002
649.366 0.27334000000000014
649.662 0.2333400000000001
649.957 0.2333400000000001
650.253 0.2633399999999999
650.548 0.2400000000000002
650.844 0.24666999999999994
651.139 0.2433399999999999
651.434 0.2400000000000002
651.73 0.22666999999999993
652.025 0.2633399999999999
652.321 0.25
652.616 0.24666999999999994
652.911 0.2433399999999999
653.207 0.2200000000000002
653.502 0.22999999999999998
653.797 0.2400000000000002
654.093 0.25
654.388 0.20999999999999996
654.683 0.24666999999999994
654.979 0.2400000000000002
655.274 0.19667000000000012
655.567 0.28000000000000025
655.863 0.22666999999999993
656.158 0.2566700000000002
656.453 0.19667000000000012
656.748 0.2200000000000002
657.044 0.2566700000000002
657.339 0.24666999999999994
657.634 0.21334000000000009
657.929 0.2533400000000001
658.224 0.25
658.52 0.23667000000000016
658.815 0.22999999999999998
659.11 0.21334000000000009
659.405 0.21667000000000014
659.7 0.2400000000000002
659.995 0.23667000000000016
660.291 0.23667000000000016
660.586 0.20000000000000018
660.879 0.2400000000000002
661.174 0.2533400000000001
661.469 0.24666999999999994
661.764 0.2333400000000001
662.059 0.2433399999999999
662.354 0.2066699999999999
662.649 0.2433399999999999
662.944 0.2333400000000001
663.239 0.2433399999999999
663.534 0.20999999999999996
663.83 0.2400000000000002
664.122 0.22666999999999993
664.417 0.22333999999999987
664.713 0.22666999999999993
665.008 0.20333999999999985
665.302 0.20999999999999996
665.597 0.20000000000000018
665.892 0.23667000000000016
666.187 0.26000000000000023
666.48 0.22999999999999998
666.775 0.20999999999999996
667.07 0.20000000000000018
667.365 0.2333400000000001
667.66 0.18000000000000016
667.955 0.2433399999999999
668.25 0.22666999999999993
668.542 0.2200000000000002
668.837 0.23667000000000016
669.132 0.25
669.427 0.2400000000000002
669.722 0.23667000000000016
670.017 0.18999999999999995
670.31 0.20999999999999996
670.604 0.22999999999999998
670.899 0.22666999999999993
671.194 0.20333999999999985
671.489 0.2200000000000002
671.783 0.2433399999999999
672.076 0.22999999999999998
672.371 0.2200000000000002
672.666 0.2200000000000002
672.96 0.18999999999999995
673.255 0.21667000000000014
673.548 0.2333400000000001
673.842 0.2333400000000001
674.137 0.20000000000000018
674.432 0.20333999999999985
674.727 0.20000000000000018
675.019 0.22333999999999987
675.314 0.21667000000000014
675.608 0.22333999999999987
